Channel , Theta ,Alpha ,Low beta ,High beta , Gamma 
AF3,196.68528853164116,368.2367687675815,357.5767063253688,488.59321378614743,515.1120316940459,
T7,330.14150333577624,357.97826757620646,406.5516664520668,427.63822640050967,466.55974056322805,
Pz,91.33822358110518,107.15027157003675,55.84330098523884,89.47597821449408,249.70778639795785,
T8,981.3690954380161,228.5601754350872,501.8713455772534,293.8743573990064,338.4014096420833,
AF4,469.75296784127295,504.7981008615923,177.3789900226012,190.7237420521464,432.9930830981885,
AF3,196.68528853164116,368.2367687675815,357.5767063253688,488.59321378614743,515.1120316940459,
T7,330.14150333577624,357.97826757620646,406.5516664520668,427.63822640050967,466.55974056322805,
Pz,91.33822358110518,107.15027157003675,55.84330098523884,89.47597821449408,249.70778639795785,
T8,981.3690954380161,228.5601754350872,501.8713455772534,293.8743573990064,338.4014096420833,
AF4,469.75296784127295,504.7981008615923,177.3789900226012,190.7237420521464,432.9930830981885,
AF3,196.68528853164116,368.2367687675815,357.5767063253688,488.59321378614743,515.1120316940459,
T7,330.14150333577624,357.97826757620646,406.5516664520668,427.63822640050967,466.55974056322805,
Pz,91.33822358110518,107.15027157003675,55.84330098523884,89.47597821449408,249.70778639795785,
T8,981.3690954380161,228.5601754350872,501.8713455772534,293.8743573990064,338.4014096420833,
AF4,469.75296784127295,504.7981008615923,177.3789900226012,190.7237420521464,432.9930830981885,
AF3,196.68528853164116,368.2367687675815,357.5767063253688,488.59321378614743,515.1120316940459,
T7,330.14150333577624,357.97826757620646,406.5516664520668,427.63822640050967,466.55974056322805,
Pz,91.33822358110518,107.15027157003675,55.84330098523884,89.47597821449408,249.70778639795785,
T8,981.3690954380161,228.5601754350872,501.8713455772534,293.8743573990064,338.4014096420833,
AF4,469.75296784127295,504.7981008615923,177.3789900226012,190.7237420521464,432.9930830981885,
AF3,196.68528853164116,368.2367687675815,357.5767063253688,488.59321378614743,515.1120316940459,
T7,330.14150333577624,357.97826757620646,406.5516664520668,427.63822640050967,466.55974056322805,
Pz,91.33822358110518,107.15027157003675,55.84330098523884,89.47597821449408,249.70778639795785,
T8,981.3690954380161,228.5601754350872,501.8713455772534,293.8743573990064,338.4014096420833,
AF4,469.75296784127295,504.7981008615923,177.3789900226012,190.7237420521464,432.9930830981885,
AF3,196.68528853164116,368.2367687675815,357.5767063253688,488.59321378614743,515.1120316940459,
T7,330.14150333577624,357.97826757620646,406.5516664520668,427.63822640050967,466.55974056322805,
Pz,91.33822358110518,107.15027157003675,55.84330098523884,89.47597821449408,249.70778639795785,
T8,981.3690954380161,228.5601754350872,501.8713455772534,293.8743573990064,338.4014096420833,
AF4,469.75296784127295,504.7981008615923,177.3789900226012,190.7237420521464,432.9930830981885,
AF3,196.68528853164116,368.2367687675815,357.5767063253688,488.59321378614743,515.1120316940459,
T7,330.14150333577624,357.97826757620646,406.5516664520668,427.63822640050967,466.55974056322805,
Pz,91.33822358110518,107.15027157003675,55.84330098523884,89.47597821449408,249.70778639795785,
T8,981.3690954380161,228.5601754350872,501.8713455772534,293.8743573990064,338.4014096420833,
AF4,469.75296784127295,504.7981008615923,177.3789900226012,190.7237420521464,432.9930830981885,
AF3,196.68528853164116,368.2367687675815,357.5767063253688,488.59321378614743,515.1120316940459,
T7,330.14150333577624,357.97826757620646,406.5516664520668,427.63822640050967,466.55974056322805,
Pz,91.33822358110518,107.15027157003675,55.84330098523884,89.47597821449408,249.70778639795785,
T8,981.3690954380161,228.5601754350872,501.8713455772534,293.8743573990064,338.4014096420833,
AF4,469.75296784127295,504.7981008615923,177.3789900226012,190.7237420521464,432.9930830981885,
AF3,196.68528853164116,368.2367687675815,357.5767063253688,488.59321378614743,515.1120316940459,
T7,330.14150333577624,357.97826757620646,406.5516664520668,427.63822640050967,466.55974056322805,
Pz,91.33822358110518,107.15027157003675,55.84330098523884,89.47597821449408,249.70778639795785,
T8,981.3690954380161,228.5601754350872,501.8713455772534,293.8743573990064,338.4014096420833,
AF4,469.75296784127295,504.7981008615923,177.3789900226012,190.7237420521464,432.9930830981885,
AF3,196.68528853164116,368.2367687675815,357.5767063253688,488.59321378614743,515.1120316940459,
T7,330.14150333577624,357.97826757620646,406.5516664520668,427.63822640050967,466.55974056322805,
Pz,91.33822358110518,107.15027157003675,55.84330098523884,89.47597821449408,249.70778639795785,
T8,981.3690954380161,228.5601754350872,501.8713455772534,293.8743573990064,338.4014096420833,
AF4,469.75296784127295,504.7981008615923,177.3789900226012,190.7237420521464,432.9930830981885,
AF3,196.68528853164116,368.2367687675815,357.5767063253688,488.59321378614743,515.1120316940459,
T7,330.14150333577624,357.97826757620646,406.5516664520668,427.63822640050967,466.55974056322805,
Pz,91.33822358110518,107.15027157003675,55.84330098523884,89.47597821449408,249.70778639795785,
T8,981.3690954380161,228.5601754350872,501.8713455772534,293.8743573990064,338.4014096420833,
AF4,469.75296784127295,504.7981008615923,177.3789900226012,190.7237420521464,432.9930830981885,
AF3,196.68528853164116,368.2367687675815,357.5767063253688,488.59321378614743,515.1120316940459,
T7,330.14150333577624,357.97826757620646,406.5516664520668,427.63822640050967,466.55974056322805,
Pz,91.33822358110518,107.15027157003675,55.84330098523884,89.47597821449408,249.70778639795785,
T8,981.3690954380161,228.5601754350872,501.8713455772534,293.8743573990064,338.4014096420833,
AF4,469.75296784127295,504.7981008615923,177.3789900226012,190.7237420521464,432.9930830981885,
AF3,196.68528853164116,368.2367687675815,357.5767063253688,488.59321378614743,515.1120316940459,
T7,330.14150333577624,357.97826757620646,406.5516664520668,427.63822640050967,466.55974056322805,
Pz,91.33822358110518,107.15027157003675,55.84330098523884,89.47597821449408,249.70778639795785,
T8,981.3690954380161,228.5601754350872,501.8713455772534,293.8743573990064,338.4014096420833,
AF4,469.75296784127295,504.7981008615923,177.3789900226012,190.7237420521464,432.9930830981885,
AF3,196.68528853164116,368.2367687675815,357.5767063253688,488.59321378614743,515.1120316940459,
T7,330.14150333577624,357.97826757620646,406.5516664520668,427.63822640050967,466.55974056322805,
Pz,91.33822358110518,107.15027157003675,55.84330098523884,89.47597821449408,249.70778639795785,
T8,981.3690954380161,228.5601754350872,501.8713455772534,293.8743573990064,338.4014096420833,
AF4,469.75296784127295,504.7981008615923,177.3789900226012,190.7237420521464,432.9930830981885,
AF3,196.68528853164116,368.2367687675815,357.5767063253688,488.59321378614743,515.1120316940459,
T7,330.14150333577624,357.97826757620646,406.5516664520668,427.63822640050967,466.55974056322805,
Pz,91.33822358110518,107.15027157003675,55.84330098523884,89.47597821449408,249.70778639795785,
T8,981.3690954380161,228.5601754350872,501.8713455772534,293.8743573990064,338.4014096420833,
AF4,469.75296784127295,504.7981008615923,177.3789900226012,190.7237420521464,432.9930830981885,
AF3,196.68528853164116,368.2367687675815,357.5767063253688,488.59321378614743,515.1120316940459,
T7,330.14150333577624,357.97826757620646,406.5516664520668,427.63822640050967,466.55974056322805,
Pz,91.33822358110518,107.15027157003675,55.84330098523884,89.47597821449408,249.70778639795785,
T8,981.3690954380161,228.5601754350872,501.8713455772534,293.8743573990064,338.4014096420833,
AF4,469.75296784127295,504.7981008615923,177.3789900226012,190.7237420521464,432.9930830981885,
AF3,196.68528853164116,368.2367687675815,357.5767063253688,488.59321378614743,515.1120316940459,
T7,330.14150333577624,357.97826757620646,406.5516664520668,427.63822640050967,466.55974056322805,
Pz,91.33822358110518,107.15027157003675,55.84330098523884,89.47597821449408,249.70778639795785,
T8,981.3690954380161,228.5601754350872,501.8713455772534,293.8743573990064,338.4014096420833,
AF4,469.75296784127295,504.7981008615923,177.3789900226012,190.7237420521464,432.9930830981885,
AF3,196.68528853164116,368.2367687675815,357.5767063253688,488.59321378614743,515.1120316940459,
T7,330.14150333577624,357.97826757620646,406.5516664520668,427.63822640050967,466.55974056322805,
Pz,91.33822358110518,107.15027157003675,55.84330098523884,89.47597821449408,249.70778639795785,
T8,981.3690954380161,228.5601754350872,501.8713455772534,293.8743573990064,338.4014096420833,
AF4,469.75296784127295,504.7981008615923,177.3789900226012,190.7237420521464,432.9930830981885,
AF3,196.68528853164116,368.2367687675815,357.5767063253688,488.59321378614743,515.1120316940459,
T7,330.14150333577624,357.97826757620646,406.5516664520668,427.63822640050967,466.55974056322805,
Pz,91.33822358110518,107.15027157003675,55.84330098523884,89.47597821449408,249.70778639795785,
T8,981.3690954380161,228.5601754350872,501.8713455772534,293.8743573990064,338.4014096420833,
AF4,469.75296784127295,504.7981008615923,177.3789900226012,190.7237420521464,432.9930830981885,
AF3,196.68528853164116,368.2367687675815,357.5767063253688,488.59321378614743,515.1120316940459,
T7,330.14150333577624,357.97826757620646,406.5516664520668,427.63822640050967,466.55974056322805,
Pz,91.33822358110518,107.15027157003675,55.84330098523884,89.47597821449408,249.70778639795785,
T8,981.3690954380161,228.5601754350872,501.8713455772534,293.8743573990064,338.4014096420833,
AF4,469.75296784127295,504.7981008615923,177.3789900226012,190.7237420521464,432.9930830981885,
AF3,196.68528853164116,368.2367687675815,357.5767063253688,488.59321378614743,515.1120316940459,
T7,330.14150333577624,357.97826757620646,406.5516664520668,427.63822640050967,466.55974056322805,
Pz,91.33822358110518,107.15027157003675,55.84330098523884,89.47597821449408,249.70778639795785,
T8,981.3690954380161,228.5601754350872,501.8713455772534,293.8743573990064,338.4014096420833,
AF4,469.75296784127295,504.7981008615923,177.3789900226012,190.7237420521464,432.9930830981885,
AF3,196.68528853164116,368.2367687675815,357.5767063253688,488.59321378614743,515.1120316940459,
T7,330.14150333577624,357.97826757620646,406.5516664520668,427.63822640050967,466.55974056322805,
Pz,91.33822358110518,107.15027157003675,55.84330098523884,89.47597821449408,249.70778639795785,
T8,981.3690954380161,228.5601754350872,501.8713455772534,293.8743573990064,338.4014096420833,
AF4,469.75296784127295,504.7981008615923,177.3789900226012,190.7237420521464,432.9930830981885,
AF3,196.68528853164116,368.2367687675815,357.5767063253688,488.59321378614743,515.1120316940459,
T7,330.14150333577624,357.97826757620646,406.5516664520668,427.63822640050967,466.55974056322805,
Pz,91.33822358110518,107.15027157003675,55.84330098523884,89.47597821449408,249.70778639795785,
T8,981.3690954380161,228.5601754350872,501.8713455772534,293.8743573990064,338.4014096420833,
AF4,469.75296784127295,504.7981008615923,177.3789900226012,190.7237420521464,432.9930830981885,
AF3,196.68528853164116,368.2367687675815,357.5767063253688,488.59321378614743,515.1120316940459,
T7,330.14150333577624,357.97826757620646,406.5516664520668,427.63822640050967,466.55974056322805,
Pz,91.33822358110518,107.15027157003675,55.84330098523884,89.47597821449408,249.70778639795785,
T8,981.3690954380161,228.5601754350872,501.8713455772534,293.8743573990064,338.4014096420833,
AF4,469.75296784127295,504.7981008615923,177.3789900226012,190.7237420521464,432.9930830981885,
AF3,196.68528853164116,368.2367687675815,357.5767063253688,488.59321378614743,515.1120316940459,
T7,330.14150333577624,357.97826757620646,406.5516664520668,427.63822640050967,466.55974056322805,
Pz,91.33822358110518,107.15027157003675,55.84330098523884,89.47597821449408,249.70778639795785,
T8,981.3690954380161,228.5601754350872,501.8713455772534,293.8743573990064,338.4014096420833,
AF4,469.75296784127295,504.7981008615923,177.3789900226012,190.7237420521464,432.9930830981885,
AF3,196.68528853164116,368.2367687675815,357.5767063253688,488.59321378614743,515.1120316940459,
T7,330.14150333577624,357.97826757620646,406.5516664520668,427.63822640050967,466.55974056322805,
Pz,91.33822358110518,107.15027157003675,55.84330098523884,89.47597821449408,249.70778639795785,
T8,981.3690954380161,228.5601754350872,501.8713455772534,293.8743573990064,338.4014096420833,
AF4,469.75296784127295,504.7981008615923,177.3789900226012,190.7237420521464,432.9930830981885,
AF3,196.68528853164116,368.2367687675815,357.5767063253688,488.59321378614743,515.1120316940459,
T7,330.14150333577624,357.97826757620646,406.5516664520668,427.63822640050967,466.55974056322805,
Pz,91.33822358110518,107.15027157003675,55.84330098523884,89.47597821449408,249.70778639795785,
T8,981.3690954380161,228.5601754350872,501.8713455772534,293.8743573990064,338.4014096420833,
AF4,469.75296784127295,504.7981008615923,177.3789900226012,190.7237420521464,432.9930830981885,
AF3,196.68528853164116,368.2367687675815,357.5767063253688,488.59321378614743,515.1120316940459,
T7,330.14150333577624,357.97826757620646,406.5516664520668,427.63822640050967,466.55974056322805,
Pz,91.33822358110518,107.15027157003675,55.84330098523884,89.47597821449408,249.70778639795785,
T8,981.3690954380161,228.5601754350872,501.8713455772534,293.8743573990064,338.4014096420833,
AF4,469.75296784127295,504.7981008615923,177.3789900226012,190.7237420521464,432.9930830981885,
AF3,196.68528853164116,368.2367687675815,357.5767063253688,488.59321378614743,515.1120316940459,
T7,330.14150333577624,357.97826757620646,406.5516664520668,427.63822640050967,466.55974056322805,
Pz,91.33822358110518,107.15027157003675,55.84330098523884,89.47597821449408,249.70778639795785,
T8,981.3690954380161,228.5601754350872,501.8713455772534,293.8743573990064,338.4014096420833,
AF4,469.75296784127295,504.7981008615923,177.3789900226012,190.7237420521464,432.9930830981885,
AF3,196.68528853164116,368.2367687675815,357.5767063253688,488.59321378614743,515.1120316940459,
T7,330.14150333577624,357.97826757620646,406.5516664520668,427.63822640050967,466.55974056322805,
Pz,91.33822358110518,107.15027157003675,55.84330098523884,89.47597821449408,249.70778639795785,
T8,981.3690954380161,228.5601754350872,501.8713455772534,293.8743573990064,338.4014096420833,
AF4,469.75296784127295,504.7981008615923,177.3789900226012,190.7237420521464,432.9930830981885,
AF3,196.68528853164116,368.2367687675815,357.5767063253688,488.59321378614743,515.1120316940459,
T7,330.14150333577624,357.97826757620646,406.5516664520668,427.63822640050967,466.55974056322805,
Pz,91.33822358110518,107.15027157003675,55.84330098523884,89.47597821449408,249.70778639795785,
T8,981.3690954380161,228.5601754350872,501.8713455772534,293.8743573990064,338.4014096420833,
AF4,469.75296784127295,504.7981008615923,177.3789900226012,190.7237420521464,432.9930830981885,
AF3,196.68528853164116,368.2367687675815,357.5767063253688,488.59321378614743,515.1120316940459,
T7,330.14150333577624,357.97826757620646,406.5516664520668,427.63822640050967,466.55974056322805,
Pz,91.33822358110518,107.15027157003675,55.84330098523884,89.47597821449408,249.70778639795785,
T8,981.3690954380161,228.5601754350872,501.8713455772534,293.8743573990064,338.4014096420833,
AF4,469.75296784127295,504.7981008615923,177.3789900226012,190.7237420521464,432.9930830981885,
AF3,196.68528853164116,368.2367687675815,357.5767063253688,488.59321378614743,515.1120316940459,
T7,330.14150333577624,357.97826757620646,406.5516664520668,427.63822640050967,466.55974056322805,
Pz,91.33822358110518,107.15027157003675,55.84330098523884,89.47597821449408,249.70778639795785,
T8,981.3690954380161,228.5601754350872,501.8713455772534,293.8743573990064,338.4014096420833,
AF4,469.75296784127295,504.7981008615923,177.3789900226012,190.7237420521464,432.9930830981885,
AF3,196.68528853164116,368.2367687675815,357.5767063253688,488.59321378614743,515.1120316940459,
T7,330.14150333577624,357.97826757620646,406.5516664520668,427.63822640050967,466.55974056322805,
Pz,91.33822358110518,107.15027157003675,55.84330098523884,89.47597821449408,249.70778639795785,
T8,981.3690954380161,228.5601754350872,501.8713455772534,293.8743573990064,338.4014096420833,
AF4,469.75296784127295,504.7981008615923,177.3789900226012,190.7237420521464,432.9930830981885,
AF3,196.68528853164116,368.2367687675815,357.5767063253688,488.59321378614743,515.1120316940459,
T7,330.14150333577624,357.97826757620646,406.5516664520668,427.63822640050967,466.55974056322805,
Pz,91.33822358110518,107.15027157003675,55.84330098523884,89.47597821449408,249.70778639795785,
T8,981.3690954380161,228.5601754350872,501.8713455772534,293.8743573990064,338.4014096420833,
AF4,469.75296784127295,504.7981008615923,177.3789900226012,190.7237420521464,432.9930830981885,
AF3,196.68528853164116,368.2367687675815,357.5767063253688,488.59321378614743,515.1120316940459,
T7,330.14150333577624,357.97826757620646,406.5516664520668,427.63822640050967,466.55974056322805,
Pz,91.33822358110518,107.15027157003675,55.84330098523884,89.47597821449408,249.70778639795785,
T8,981.3690954380161,228.5601754350872,501.8713455772534,293.8743573990064,338.4014096420833,
AF4,469.75296784127295,504.7981008615923,177.3789900226012,190.7237420521464,432.9930830981885,
AF3,196.68528853164116,368.2367687675815,357.5767063253688,488.59321378614743,515.1120316940459,
T7,330.14150333577624,357.97826757620646,406.5516664520668,427.63822640050967,466.55974056322805,
Pz,91.33822358110518,107.15027157003675,55.84330098523884,89.47597821449408,249.70778639795785,
T8,981.3690954380161,228.5601754350872,501.8713455772534,293.8743573990064,338.4014096420833,
AF4,469.75296784127295,504.7981008615923,177.3789900226012,190.7237420521464,432.9930830981885,
AF3,196.68528853164116,368.2367687675815,357.5767063253688,488.59321378614743,515.1120316940459,
T7,330.14150333577624,357.97826757620646,406.5516664520668,427.63822640050967,466.55974056322805,
Pz,91.33822358110518,107.15027157003675,55.84330098523884,89.47597821449408,249.70778639795785,
T8,981.3690954380161,228.5601754350872,501.8713455772534,293.8743573990064,338.4014096420833,
AF4,469.75296784127295,504.7981008615923,177.3789900226012,190.7237420521464,432.9930830981885,
AF3,149.0482636981983,219.2944501190308,228.58928556495715,286.164984241462,260.862883322063,
T7,321.89151396792687,169.13790712488873,158.32394044488962,264.7030430148257,310.28433500229613,
Pz,120.75116108061037,114.99005355198018,70.31880054080129,71.92804037097947,133.8915542362272,
T8,380.19300718877844,218.61745269639604,236.47354741423592,336.62019473894276,226.10276476110351,
AF4,250.45858426860462,113.99080778710669,72.55210467097102,144.7742596304984,367.51801903876236,
AF3,149.0482636981983,219.2944501190308,228.58928556495715,286.164984241462,260.862883322063,
T7,321.89151396792687,169.13790712488873,158.32394044488962,264.7030430148257,310.28433500229613,
Pz,120.75116108061037,114.99005355198018,70.31880054080129,71.92804037097947,133.8915542362272,
T8,380.19300718877844,218.61745269639604,236.47354741423592,336.62019473894276,226.10276476110351,
AF4,250.45858426860462,113.99080778710669,72.55210467097102,144.7742596304984,367.51801903876236,
AF3,149.0482636981983,219.2944501190308,228.58928556495715,286.164984241462,260.862883322063,
T7,321.89151396792687,169.13790712488873,158.32394044488962,264.7030430148257,310.28433500229613,
Pz,120.75116108061037,114.99005355198018,70.31880054080129,71.92804037097947,133.8915542362272,
T8,380.19300718877844,218.61745269639604,236.47354741423592,336.62019473894276,226.10276476110351,
AF4,250.45858426860462,113.99080778710669,72.55210467097102,144.7742596304984,367.51801903876236,
AF3,149.0482636981983,219.2944501190308,228.58928556495715,286.164984241462,260.862883322063,
T7,321.89151396792687,169.13790712488873,158.32394044488962,264.7030430148257,310.28433500229613,
Pz,120.75116108061037,114.99005355198018,70.31880054080129,71.92804037097947,133.8915542362272,
T8,380.19300718877844,218.61745269639604,236.47354741423592,336.62019473894276,226.10276476110351,
AF4,250.45858426860462,113.99080778710669,72.55210467097102,144.7742596304984,367.51801903876236,
AF3,149.0482636981983,219.2944501190308,228.58928556495715,286.164984241462,260.862883322063,
T7,321.89151396792687,169.13790712488873,158.32394044488962,264.7030430148257,310.28433500229613,
Pz,120.75116108061037,114.99005355198018,70.31880054080129,71.92804037097947,133.8915542362272,
T8,380.19300718877844,218.61745269639604,236.47354741423592,336.62019473894276,226.10276476110351,
AF4,250.45858426860462,113.99080778710669,72.55210467097102,144.7742596304984,367.51801903876236,
AF3,149.0482636981983,219.2944501190308,228.58928556495715,286.164984241462,260.862883322063,
T7,321.89151396792687,169.13790712488873,158.32394044488962,264.7030430148257,310.28433500229613,
Pz,120.75116108061037,114.99005355198018,70.31880054080129,71.92804037097947,133.8915542362272,
T8,380.19300718877844,218.61745269639604,236.47354741423592,336.62019473894276,226.10276476110351,
AF4,250.45858426860462,113.99080778710669,72.55210467097102,144.7742596304984,367.51801903876236,
AF3,149.0482636981983,219.2944501190308,228.58928556495715,286.164984241462,260.862883322063,
T7,321.89151396792687,169.13790712488873,158.32394044488962,264.7030430148257,310.28433500229613,
Pz,120.75116108061037,114.99005355198018,70.31880054080129,71.92804037097947,133.8915542362272,
T8,380.19300718877844,218.61745269639604,236.47354741423592,336.62019473894276,226.10276476110351,
AF4,250.45858426860462,113.99080778710669,72.55210467097102,144.7742596304984,367.51801903876236,
AF3,149.0482636981983,219.2944501190308,228.58928556495715,286.164984241462,260.862883322063,
T7,321.89151396792687,169.13790712488873,158.32394044488962,264.7030430148257,310.28433500229613,
Pz,120.75116108061037,114.99005355198018,70.31880054080129,71.92804037097947,133.8915542362272,
T8,380.19300718877844,218.61745269639604,236.47354741423592,336.62019473894276,226.10276476110351,
AF4,250.45858426860462,113.99080778710669,72.55210467097102,144.7742596304984,367.51801903876236,
AF3,149.0482636981983,219.2944501190308,228.58928556495715,286.164984241462,260.862883322063,
T7,321.89151396792687,169.13790712488873,158.32394044488962,264.7030430148257,310.28433500229613,
Pz,120.75116108061037,114.99005355198018,70.31880054080129,71.92804037097947,133.8915542362272,
T8,380.19300718877844,218.61745269639604,236.47354741423592,336.62019473894276,226.10276476110351,
AF4,250.45858426860462,113.99080778710669,72.55210467097102,144.7742596304984,367.51801903876236,
AF3,149.0482636981983,219.2944501190308,228.58928556495715,286.164984241462,260.862883322063,
T7,321.89151396792687,169.13790712488873,158.32394044488962,264.7030430148257,310.28433500229613,
Pz,120.75116108061037,114.99005355198018,70.31880054080129,71.92804037097947,133.8915542362272,
T8,380.19300718877844,218.61745269639604,236.47354741423592,336.62019473894276,226.10276476110351,
AF4,250.45858426860462,113.99080778710669,72.55210467097102,144.7742596304984,367.51801903876236,
AF3,149.0482636981983,219.2944501190308,228.58928556495715,286.164984241462,260.862883322063,
T7,321.89151396792687,169.13790712488873,158.32394044488962,264.7030430148257,310.28433500229613,
Pz,120.75116108061037,114.99005355198018,70.31880054080129,71.92804037097947,133.8915542362272,
T8,380.19300718877844,218.61745269639604,236.47354741423592,336.62019473894276,226.10276476110351,
AF4,250.45858426860462,113.99080778710669,72.55210467097102,144.7742596304984,367.51801903876236,
AF3,149.0482636981983,219.2944501190308,228.58928556495715,286.164984241462,260.862883322063,
T7,321.89151396792687,169.13790712488873,158.32394044488962,264.7030430148257,310.28433500229613,
Pz,120.75116108061037,114.99005355198018,70.31880054080129,71.92804037097947,133.8915542362272,
T8,380.19300718877844,218.61745269639604,236.47354741423592,336.62019473894276,226.10276476110351,
AF4,250.45858426860462,113.99080778710669,72.55210467097102,144.7742596304984,367.51801903876236,
AF3,149.0482636981983,219.2944501190308,228.58928556495715,286.164984241462,260.862883322063,
T7,321.89151396792687,169.13790712488873,158.32394044488962,264.7030430148257,310.28433500229613,
Pz,120.75116108061037,114.99005355198018,70.31880054080129,71.92804037097947,133.8915542362272,
T8,380.19300718877844,218.61745269639604,236.47354741423592,336.62019473894276,226.10276476110351,
AF4,250.45858426860462,113.99080778710669,72.55210467097102,144.7742596304984,367.51801903876236,
AF3,149.0482636981983,219.2944501190308,228.58928556495715,286.164984241462,260.862883322063,
T7,321.89151396792687,169.13790712488873,158.32394044488962,264.7030430148257,310.28433500229613,
Pz,120.75116108061037,114.99005355198018,70.31880054080129,71.92804037097947,133.8915542362272,
T8,380.19300718877844,218.61745269639604,236.47354741423592,336.62019473894276,226.10276476110351,
AF4,250.45858426860462,113.99080778710669,72.55210467097102,144.7742596304984,367.51801903876236,
AF3,149.0482636981983,219.2944501190308,228.58928556495715,286.164984241462,260.862883322063,
T7,321.89151396792687,169.13790712488873,158.32394044488962,264.7030430148257,310.28433500229613,
Pz,120.75116108061037,114.99005355198018,70.31880054080129,71.92804037097947,133.8915542362272,
T8,380.19300718877844,218.61745269639604,236.47354741423592,336.62019473894276,226.10276476110351,
AF4,250.45858426860462,113.99080778710669,72.55210467097102,144.7742596304984,367.51801903876236,
AF3,149.0482636981983,219.2944501190308,228.58928556495715,286.164984241462,260.862883322063,
T7,321.89151396792687,169.13790712488873,158.32394044488962,264.7030430148257,310.28433500229613,
Pz,120.75116108061037,114.99005355198018,70.31880054080129,71.92804037097947,133.8915542362272,
T8,380.19300718877844,218.61745269639604,236.47354741423592,336.62019473894276,226.10276476110351,
AF4,250.45858426860462,113.99080778710669,72.55210467097102,144.7742596304984,367.51801903876236,
AF3,149.0482636981983,219.2944501190308,228.58928556495715,286.164984241462,260.862883322063,
T7,321.89151396792687,169.13790712488873,158.32394044488962,264.7030430148257,310.28433500229613,
Pz,120.75116108061037,114.99005355198018,70.31880054080129,71.92804037097947,133.8915542362272,
T8,380.19300718877844,218.61745269639604,236.47354741423592,336.62019473894276,226.10276476110351,
AF4,250.45858426860462,113.99080778710669,72.55210467097102,144.7742596304984,367.51801903876236,
AF3,149.0482636981983,219.2944501190308,228.58928556495715,286.164984241462,260.862883322063,
T7,321.89151396792687,169.13790712488873,158.32394044488962,264.7030430148257,310.28433500229613,
Pz,120.75116108061037,114.99005355198018,70.31880054080129,71.92804037097947,133.8915542362272,
T8,380.19300718877844,218.61745269639604,236.47354741423592,336.62019473894276,226.10276476110351,
AF4,250.45858426860462,113.99080778710669,72.55210467097102,144.7742596304984,367.51801903876236,
AF3,149.0482636981983,219.2944501190308,228.58928556495715,286.164984241462,260.862883322063,
T7,321.89151396792687,169.13790712488873,158.32394044488962,264.7030430148257,310.28433500229613,
Pz,120.75116108061037,114.99005355198018,70.31880054080129,71.92804037097947,133.8915542362272,
T8,380.19300718877844,218.61745269639604,236.47354741423592,336.62019473894276,226.10276476110351,
AF4,250.45858426860462,113.99080778710669,72.55210467097102,144.7742596304984,367.51801903876236,
AF3,149.0482636981983,219.2944501190308,228.58928556495715,286.164984241462,260.862883322063,
T7,321.89151396792687,169.13790712488873,158.32394044488962,264.7030430148257,310.28433500229613,
Pz,120.75116108061037,114.99005355198018,70.31880054080129,71.92804037097947,133.8915542362272,
T8,380.19300718877844,218.61745269639604,236.47354741423592,336.62019473894276,226.10276476110351,
AF4,250.45858426860462,113.99080778710669,72.55210467097102,144.7742596304984,367.51801903876236,
AF3,149.0482636981983,219.2944501190308,228.58928556495715,286.164984241462,260.862883322063,
T7,321.89151396792687,169.13790712488873,158.32394044488962,264.7030430148257,310.28433500229613,
Pz,120.75116108061037,114.99005355198018,70.31880054080129,71.92804037097947,133.8915542362272,
T8,380.19300718877844,218.61745269639604,236.47354741423592,336.62019473894276,226.10276476110351,
AF4,250.45858426860462,113.99080778710669,72.55210467097102,144.7742596304984,367.51801903876236,
AF3,149.0482636981983,219.2944501190308,228.58928556495715,286.164984241462,260.862883322063,
T7,321.89151396792687,169.13790712488873,158.32394044488962,264.7030430148257,310.28433500229613,
Pz,120.75116108061037,114.99005355198018,70.31880054080129,71.92804037097947,133.8915542362272,
T8,380.19300718877844,218.61745269639604,236.47354741423592,336.62019473894276,226.10276476110351,
AF4,250.45858426860462,113.99080778710669,72.55210467097102,144.7742596304984,367.51801903876236,
AF3,149.0482636981983,219.2944501190308,228.58928556495715,286.164984241462,260.862883322063,
T7,321.89151396792687,169.13790712488873,158.32394044488962,264.7030430148257,310.28433500229613,
Pz,120.75116108061037,114.99005355198018,70.31880054080129,71.92804037097947,133.8915542362272,
T8,380.19300718877844,218.61745269639604,236.47354741423592,336.62019473894276,226.10276476110351,
AF4,250.45858426860462,113.99080778710669,72.55210467097102,144.7742596304984,367.51801903876236,
AF3,149.0482636981983,219.2944501190308,228.58928556495715,286.164984241462,260.862883322063,
T7,321.89151396792687,169.13790712488873,158.32394044488962,264.7030430148257,310.28433500229613,
Pz,120.75116108061037,114.99005355198018,70.31880054080129,71.92804037097947,133.8915542362272,
T8,380.19300718877844,218.61745269639604,236.47354741423592,336.62019473894276,226.10276476110351,
AF4,250.45858426860462,113.99080778710669,72.55210467097102,144.7742596304984,367.51801903876236,
AF3,149.0482636981983,219.2944501190308,228.58928556495715,286.164984241462,260.862883322063,
T7,321.89151396792687,169.13790712488873,158.32394044488962,264.7030430148257,310.28433500229613,
Pz,120.75116108061037,114.99005355198018,70.31880054080129,71.92804037097947,133.8915542362272,
T8,380.19300718877844,218.61745269639604,236.47354741423592,336.62019473894276,226.10276476110351,
AF4,250.45858426860462,113.99080778710669,72.55210467097102,144.7742596304984,367.51801903876236,
AF3,149.0482636981983,219.2944501190308,228.58928556495715,286.164984241462,260.862883322063,
T7,321.89151396792687,169.13790712488873,158.32394044488962,264.7030430148257,310.28433500229613,
Pz,120.75116108061037,114.99005355198018,70.31880054080129,71.92804037097947,133.8915542362272,
T8,380.19300718877844,218.61745269639604,236.47354741423592,336.62019473894276,226.10276476110351,
AF4,250.45858426860462,113.99080778710669,72.55210467097102,144.7742596304984,367.51801903876236,
AF3,149.0482636981983,219.2944501190308,228.58928556495715,286.164984241462,260.862883322063,
T7,321.89151396792687,169.13790712488873,158.32394044488962,264.7030430148257,310.28433500229613,
Pz,120.75116108061037,114.99005355198018,70.31880054080129,71.92804037097947,133.8915542362272,
T8,380.19300718877844,218.61745269639604,236.47354741423592,336.62019473894276,226.10276476110351,
AF4,250.45858426860462,113.99080778710669,72.55210467097102,144.7742596304984,367.51801903876236,
AF3,149.0482636981983,219.2944501190308,228.58928556495715,286.164984241462,260.862883322063,
T7,321.89151396792687,169.13790712488873,158.32394044488962,264.7030430148257,310.28433500229613,
Pz,120.75116108061037,114.99005355198018,70.31880054080129,71.92804037097947,133.8915542362272,
T8,380.19300718877844,218.61745269639604,236.47354741423592,336.62019473894276,226.10276476110351,
AF4,250.45858426860462,113.99080778710669,72.55210467097102,144.7742596304984,367.51801903876236,
AF3,149.0482636981983,219.2944501190308,228.58928556495715,286.164984241462,260.862883322063,
T7,321.89151396792687,169.13790712488873,158.32394044488962,264.7030430148257,310.28433500229613,
Pz,120.75116108061037,114.99005355198018,70.31880054080129,71.92804037097947,133.8915542362272,
T8,380.19300718877844,218.61745269639604,236.47354741423592,336.62019473894276,226.10276476110351,
AF4,250.45858426860462,113.99080778710669,72.55210467097102,144.7742596304984,367.51801903876236,
AF3,149.0482636981983,219.2944501190308,228.58928556495715,286.164984241462,260.862883322063,
T7,321.89151396792687,169.13790712488873,158.32394044488962,264.7030430148257,310.28433500229613,
Pz,120.75116108061037,114.99005355198018,70.31880054080129,71.92804037097947,133.8915542362272,
T8,380.19300718877844,218.61745269639604,236.47354741423592,336.62019473894276,226.10276476110351,
AF4,250.45858426860462,113.99080778710669,72.55210467097102,144.7742596304984,367.51801903876236,
AF3,149.0482636981983,219.2944501190308,228.58928556495715,286.164984241462,260.862883322063,
T7,321.89151396792687,169.13790712488873,158.32394044488962,264.7030430148257,310.28433500229613,
Pz,120.75116108061037,114.99005355198018,70.31880054080129,71.92804037097947,133.8915542362272,
T8,380.19300718877844,218.61745269639604,236.47354741423592,336.62019473894276,226.10276476110351,
AF4,250.45858426860462,113.99080778710669,72.55210467097102,144.7742596304984,367.51801903876236,
AF3,149.0482636981983,219.2944501190308,228.58928556495715,286.164984241462,260.862883322063,
T7,321.89151396792687,169.13790712488873,158.32394044488962,264.7030430148257,310.28433500229613,
Pz,120.75116108061037,114.99005355198018,70.31880054080129,71.92804037097947,133.8915542362272,
T8,380.19300718877844,218.61745269639604,236.47354741423592,336.62019473894276,226.10276476110351,
AF4,250.45858426860462,113.99080778710669,72.55210467097102,144.7742596304984,367.51801903876236,
AF3,149.0482636981983,219.2944501190308,228.58928556495715,286.164984241462,260.862883322063,
T7,321.89151396792687,169.13790712488873,158.32394044488962,264.7030430148257,310.28433500229613,
Pz,120.75116108061037,114.99005355198018,70.31880054080129,71.92804037097947,133.8915542362272,
T8,380.19300718877844,218.61745269639604,236.47354741423592,336.62019473894276,226.10276476110351,
AF4,250.45858426860462,113.99080778710669,72.55210467097102,144.7742596304984,367.51801903876236,
AF3,149.0482636981983,219.2944501190308,228.58928556495715,286.164984241462,260.862883322063,
T7,321.89151396792687,169.13790712488873,158.32394044488962,264.7030430148257,310.28433500229613,
Pz,120.75116108061037,114.99005355198018,70.31880054080129,71.92804037097947,133.8915542362272,
T8,380.19300718877844,218.61745269639604,236.47354741423592,336.62019473894276,226.10276476110351,
AF4,250.45858426860462,113.99080778710669,72.55210467097102,144.7742596304984,367.51801903876236,
AF3,149.0482636981983,219.2944501190308,228.58928556495715,286.164984241462,260.862883322063,
T7,321.89151396792687,169.13790712488873,158.32394044488962,264.7030430148257,310.28433500229613,
Pz,120.75116108061037,114.99005355198018,70.31880054080129,71.92804037097947,133.8915542362272,
T8,380.19300718877844,218.61745269639604,236.47354741423592,336.62019473894276,226.10276476110351,
AF4,250.45858426860462,113.99080778710669,72.55210467097102,144.7742596304984,367.51801903876236,
AF3,149.0482636981983,219.2944501190308,228.58928556495715,286.164984241462,260.862883322063,
T7,321.89151396792687,169.13790712488873,158.32394044488962,264.7030430148257,310.28433500229613,
Pz,120.75116108061037,114.99005355198018,70.31880054080129,71.92804037097947,133.8915542362272,
T8,380.19300718877844,218.61745269639604,236.47354741423592,336.62019473894276,226.10276476110351,
AF4,250.45858426860462,113.99080778710669,72.55210467097102,144.7742596304984,367.51801903876236,
AF3,149.0482636981983,219.2944501190308,228.58928556495715,286.164984241462,260.862883322063,
T7,321.89151396792687,169.13790712488873,158.32394044488962,264.7030430148257,310.28433500229613,
Pz,120.75116108061037,114.99005355198018,70.31880054080129,71.92804037097947,133.8915542362272,
T8,380.19300718877844,218.61745269639604,236.47354741423592,336.62019473894276,226.10276476110351,
AF4,250.45858426860462,113.99080778710669,72.55210467097102,144.7742596304984,367.51801903876236,
AF3,149.0482636981983,219.2944501190308,228.58928556495715,286.164984241462,260.862883322063,
T7,321.89151396792687,169.13790712488873,158.32394044488962,264.7030430148257,310.28433500229613,
Pz,120.75116108061037,114.99005355198018,70.31880054080129,71.92804037097947,133.8915542362272,
T8,380.19300718877844,218.61745269639604,236.47354741423592,336.62019473894276,226.10276476110351,
AF4,250.45858426860462,113.99080778710669,72.55210467097102,144.7742596304984,367.51801903876236,
AF3,149.0482636981983,219.2944501190308,228.58928556495715,286.164984241462,260.862883322063,
T7,321.89151396792687,169.13790712488873,158.32394044488962,264.7030430148257,310.28433500229613,
Pz,120.75116108061037,114.99005355198018,70.31880054080129,71.92804037097947,133.8915542362272,
T8,380.19300718877844,218.61745269639604,236.47354741423592,336.62019473894276,226.10276476110351,
AF4,250.45858426860462,113.99080778710669,72.55210467097102,144.7742596304984,367.51801903876236,
AF3,149.0482636981983,219.2944501190308,228.58928556495715,286.164984241462,260.862883322063,
T7,321.89151396792687,169.13790712488873,158.32394044488962,264.7030430148257,310.28433500229613,
Pz,120.75116108061037,114.99005355198018,70.31880054080129,71.92804037097947,133.8915542362272,
T8,380.19300718877844,218.61745269639604,236.47354741423592,336.62019473894276,226.10276476110351,
AF4,250.45858426860462,113.99080778710669,72.55210467097102,144.7742596304984,367.51801903876236,
AF3,149.0482636981983,219.2944501190308,228.58928556495715,286.164984241462,260.862883322063,
T7,321.89151396792687,169.13790712488873,158.32394044488962,264.7030430148257,310.28433500229613,
Pz,120.75116108061037,114.99005355198018,70.31880054080129,71.92804037097947,133.8915542362272,
T8,380.19300718877844,218.61745269639604,236.47354741423592,336.62019473894276,226.10276476110351,
AF4,250.45858426860462,113.99080778710669,72.55210467097102,144.7742596304984,367.51801903876236,
AF3,149.0482636981983,219.2944501190308,228.58928556495715,286.164984241462,260.862883322063,
T7,321.89151396792687,169.13790712488873,158.32394044488962,264.7030430148257,310.28433500229613,
Pz,120.75116108061037,114.99005355198018,70.31880054080129,71.92804037097947,133.8915542362272,
T8,380.19300718877844,218.61745269639604,236.47354741423592,336.62019473894276,226.10276476110351,
AF4,250.45858426860462,113.99080778710669,72.55210467097102,144.7742596304984,367.51801903876236,
AF3,149.0482636981983,219.2944501190308,228.58928556495715,286.164984241462,260.862883322063,
T7,321.89151396792687,169.13790712488873,158.32394044488962,264.7030430148257,310.28433500229613,
Pz,120.75116108061037,114.99005355198018,70.31880054080129,71.92804037097947,133.8915542362272,
T8,380.19300718877844,218.61745269639604,236.47354741423592,336.62019473894276,226.10276476110351,
AF4,250.45858426860462,113.99080778710669,72.55210467097102,144.7742596304984,367.51801903876236,
AF3,149.0482636981983,219.2944501190308,228.58928556495715,286.164984241462,260.862883322063,
T7,321.89151396792687,169.13790712488873,158.32394044488962,264.7030430148257,310.28433500229613,
Pz,120.75116108061037,114.99005355198018,70.31880054080129,71.92804037097947,133.8915542362272,
T8,380.19300718877844,218.61745269639604,236.47354741423592,336.62019473894276,226.10276476110351,
AF4,250.45858426860462,113.99080778710669,72.55210467097102,144.7742596304984,367.51801903876236,
AF3,149.0482636981983,219.2944501190308,228.58928556495715,286.164984241462,260.862883322063,
T7,321.89151396792687,169.13790712488873,158.32394044488962,264.7030430148257,310.28433500229613,
Pz,120.75116108061037,114.99005355198018,70.31880054080129,71.92804037097947,133.8915542362272,
T8,380.19300718877844,218.61745269639604,236.47354741423592,336.62019473894276,226.10276476110351,
AF4,250.45858426860462,113.99080778710669,72.55210467097102,144.7742596304984,367.51801903876236,
AF3,149.0482636981983,219.2944501190308,228.58928556495715,286.164984241462,260.862883322063,
T7,321.89151396792687,169.13790712488873,158.32394044488962,264.7030430148257,310.28433500229613,
Pz,120.75116108061037,114.99005355198018,70.31880054080129,71.92804037097947,133.8915542362272,
T8,380.19300718877844,218.61745269639604,236.47354741423592,336.62019473894276,226.10276476110351,
AF4,250.45858426860462,113.99080778710669,72.55210467097102,144.7742596304984,367.51801903876236,
AF3,149.0482636981983,219.2944501190308,228.58928556495715,286.164984241462,260.862883322063,
T7,321.89151396792687,169.13790712488873,158.32394044488962,264.7030430148257,310.28433500229613,
Pz,120.75116108061037,114.99005355198018,70.31880054080129,71.92804037097947,133.8915542362272,
T8,380.19300718877844,218.61745269639604,236.47354741423592,336.62019473894276,226.10276476110351,
AF4,250.45858426860462,113.99080778710669,72.55210467097102,144.7742596304984,367.51801903876236,
AF3,149.0482636981983,219.2944501190308,228.58928556495715,286.164984241462,260.862883322063,
T7,321.89151396792687,169.13790712488873,158.32394044488962,264.7030430148257,310.28433500229613,
Pz,120.75116108061037,114.99005355198018,70.31880054080129,71.92804037097947,133.8915542362272,
T8,380.19300718877844,218.61745269639604,236.47354741423592,336.62019473894276,226.10276476110351,
AF4,250.45858426860462,113.99080778710669,72.55210467097102,144.7742596304984,367.51801903876236,
AF3,149.0482636981983,219.2944501190308,228.58928556495715,286.164984241462,260.862883322063,
T7,321.89151396792687,169.13790712488873,158.32394044488962,264.7030430148257,310.28433500229613,
Pz,120.75116108061037,114.99005355198018,70.31880054080129,71.92804037097947,133.8915542362272,
T8,380.19300718877844,218.61745269639604,236.47354741423592,336.62019473894276,226.10276476110351,
AF4,250.45858426860462,113.99080778710669,72.55210467097102,144.7742596304984,367.51801903876236,
AF3,149.0482636981983,219.2944501190308,228.58928556495715,286.164984241462,260.862883322063,
T7,321.89151396792687,169.13790712488873,158.32394044488962,264.7030430148257,310.28433500229613,
Pz,120.75116108061037,114.99005355198018,70.31880054080129,71.92804037097947,133.8915542362272,
T8,380.19300718877844,218.61745269639604,236.47354741423592,336.62019473894276,226.10276476110351,
AF4,250.45858426860462,113.99080778710669,72.55210467097102,144.7742596304984,367.51801903876236,
AF3,149.0482636981983,219.2944501190308,228.58928556495715,286.164984241462,260.862883322063,
T7,321.89151396792687,169.13790712488873,158.32394044488962,264.7030430148257,310.28433500229613,
Pz,120.75116108061037,114.99005355198018,70.31880054080129,71.92804037097947,133.8915542362272,
T8,380.19300718877844,218.61745269639604,236.47354741423592,336.62019473894276,226.10276476110351,
AF4,250.45858426860462,113.99080778710669,72.55210467097102,144.7742596304984,367.51801903876236,
AF3,149.0482636981983,219.2944501190308,228.58928556495715,286.164984241462,260.862883322063,
T7,321.89151396792687,169.13790712488873,158.32394044488962,264.7030430148257,310.28433500229613,
Pz,120.75116108061037,114.99005355198018,70.31880054080129,71.92804037097947,133.8915542362272,
T8,380.19300718877844,218.61745269639604,236.47354741423592,336.62019473894276,226.10276476110351,
AF4,250.45858426860462,113.99080778710669,72.55210467097102,144.7742596304984,367.51801903876236,
AF3,149.0482636981983,219.2944501190308,228.58928556495715,286.164984241462,260.862883322063,
T7,321.89151396792687,169.13790712488873,158.32394044488962,264.7030430148257,310.28433500229613,
Pz,120.75116108061037,114.99005355198018,70.31880054080129,71.92804037097947,133.8915542362272,
T8,380.19300718877844,218.61745269639604,236.47354741423592,336.62019473894276,226.10276476110351,
AF4,250.45858426860462,113.99080778710669,72.55210467097102,144.7742596304984,367.51801903876236,
AF3,149.0482636981983,219.2944501190308,228.58928556495715,286.164984241462,260.862883322063,
T7,321.89151396792687,169.13790712488873,158.32394044488962,264.7030430148257,310.28433500229613,
Pz,120.75116108061037,114.99005355198018,70.31880054080129,71.92804037097947,133.8915542362272,
T8,380.19300718877844,218.61745269639604,236.47354741423592,336.62019473894276,226.10276476110351,
AF4,250.45858426860462,113.99080778710669,72.55210467097102,144.7742596304984,367.51801903876236,
AF3,149.0482636981983,219.2944501190308,228.58928556495715,286.164984241462,260.862883322063,
T7,321.89151396792687,169.13790712488873,158.32394044488962,264.7030430148257,310.28433500229613,
Pz,120.75116108061037,114.99005355198018,70.31880054080129,71.92804037097947,133.8915542362272,
T8,380.19300718877844,218.61745269639604,236.47354741423592,336.62019473894276,226.10276476110351,
AF4,250.45858426860462,113.99080778710669,72.55210467097102,144.7742596304984,367.51801903876236,
AF3,149.0482636981983,219.2944501190308,228.58928556495715,286.164984241462,260.862883322063,
T7,321.89151396792687,169.13790712488873,158.32394044488962,264.7030430148257,310.28433500229613,
Pz,120.75116108061037,114.99005355198018,70.31880054080129,71.92804037097947,133.8915542362272,
T8,380.19300718877844,218.61745269639604,236.47354741423592,336.62019473894276,226.10276476110351,
AF4,250.45858426860462,113.99080778710669,72.55210467097102,144.7742596304984,367.51801903876236,
AF3,149.0482636981983,219.2944501190308,228.58928556495715,286.164984241462,260.862883322063,
T7,321.89151396792687,169.13790712488873,158.32394044488962,264.7030430148257,310.28433500229613,
Pz,120.75116108061037,114.99005355198018,70.31880054080129,71.92804037097947,133.8915542362272,
T8,380.19300718877844,218.61745269639604,236.47354741423592,336.62019473894276,226.10276476110351,
AF4,250.45858426860462,113.99080778710669,72.55210467097102,144.7742596304984,367.51801903876236,
AF3,149.0482636981983,219.2944501190308,228.58928556495715,286.164984241462,260.862883322063,
T7,321.89151396792687,169.13790712488873,158.32394044488962,264.7030430148257,310.28433500229613,
Pz,120.75116108061037,114.99005355198018,70.31880054080129,71.92804037097947,133.8915542362272,
T8,380.19300718877844,218.61745269639604,236.47354741423592,336.62019473894276,226.10276476110351,
AF4,250.45858426860462,113.99080778710669,72.55210467097102,144.7742596304984,367.51801903876236,
AF3,149.0482636981983,219.2944501190308,228.58928556495715,286.164984241462,260.862883322063,
T7,321.89151396792687,169.13790712488873,158.32394044488962,264.7030430148257,310.28433500229613,
Pz,120.75116108061037,114.99005355198018,70.31880054080129,71.92804037097947,133.8915542362272,
T8,380.19300718877844,218.61745269639604,236.47354741423592,336.62019473894276,226.10276476110351,
AF4,250.45858426860462,113.99080778710669,72.55210467097102,144.7742596304984,367.51801903876236,
AF3,149.0482636981983,219.2944501190308,228.58928556495715,286.164984241462,260.862883322063,
T7,321.89151396792687,169.13790712488873,158.32394044488962,264.7030430148257,310.28433500229613,
Pz,120.75116108061037,114.99005355198018,70.31880054080129,71.92804037097947,133.8915542362272,
T8,380.19300718877844,218.61745269639604,236.47354741423592,336.62019473894276,226.10276476110351,
AF4,250.45858426860462,113.99080778710669,72.55210467097102,144.7742596304984,367.51801903876236,
AF3,149.0482636981983,219.2944501190308,228.58928556495715,286.164984241462,260.862883322063,
T7,321.89151396792687,169.13790712488873,158.32394044488962,264.7030430148257,310.28433500229613,
Pz,120.75116108061037,114.99005355198018,70.31880054080129,71.92804037097947,133.8915542362272,
T8,380.19300718877844,218.61745269639604,236.47354741423592,336.62019473894276,226.10276476110351,
AF4,250.45858426860462,113.99080778710669,72.55210467097102,144.7742596304984,367.51801903876236,
AF3,149.0482636981983,219.2944501190308,228.58928556495715,286.164984241462,260.862883322063,
T7,321.89151396792687,169.13790712488873,158.32394044488962,264.7030430148257,310.28433500229613,
Pz,120.75116108061037,114.99005355198018,70.31880054080129,71.92804037097947,133.8915542362272,
T8,380.19300718877844,218.61745269639604,236.47354741423592,336.62019473894276,226.10276476110351,
AF4,250.45858426860462,113.99080778710669,72.55210467097102,144.7742596304984,367.51801903876236,
AF3,149.0482636981983,219.2944501190308,228.58928556495715,286.164984241462,260.862883322063,
T7,321.89151396792687,169.13790712488873,158.32394044488962,264.7030430148257,310.28433500229613,
Pz,120.75116108061037,114.99005355198018,70.31880054080129,71.92804037097947,133.8915542362272,
T8,380.19300718877844,218.61745269639604,236.47354741423592,336.62019473894276,226.10276476110351,
AF4,250.45858426860462,113.99080778710669,72.55210467097102,144.7742596304984,367.51801903876236,
AF3,149.0482636981983,219.2944501190308,228.58928556495715,286.164984241462,260.862883322063,
T7,321.89151396792687,169.13790712488873,158.32394044488962,264.7030430148257,310.28433500229613,
Pz,120.75116108061037,114.99005355198018,70.31880054080129,71.92804037097947,133.8915542362272,
T8,380.19300718877844,218.61745269639604,236.47354741423592,336.62019473894276,226.10276476110351,
AF4,250.45858426860462,113.99080778710669,72.55210467097102,144.7742596304984,367.51801903876236,
AF3,149.0482636981983,219.2944501190308,228.58928556495715,286.164984241462,260.862883322063,
T7,321.89151396792687,169.13790712488873,158.32394044488962,264.7030430148257,310.28433500229613,
Pz,120.75116108061037,114.99005355198018,70.31880054080129,71.92804037097947,133.8915542362272,
T8,380.19300718877844,218.61745269639604,236.47354741423592,336.62019473894276,226.10276476110351,
AF4,250.45858426860462,113.99080778710669,72.55210467097102,144.7742596304984,367.51801903876236,
AF3,149.0482636981983,219.2944501190308,228.58928556495715,286.164984241462,260.862883322063,
T7,321.89151396792687,169.13790712488873,158.32394044488962,264.7030430148257,310.28433500229613,
Pz,120.75116108061037,114.99005355198018,70.31880054080129,71.92804037097947,133.8915542362272,
T8,380.19300718877844,218.61745269639604,236.47354741423592,336.62019473894276,226.10276476110351,
AF4,250.45858426860462,113.99080778710669,72.55210467097102,144.7742596304984,367.51801903876236,
AF3,149.0482636981983,219.2944501190308,228.58928556495715,286.164984241462,260.862883322063,
T7,321.89151396792687,169.13790712488873,158.32394044488962,264.7030430148257,310.28433500229613,
Pz,120.75116108061037,114.99005355198018,70.31880054080129,71.92804037097947,133.8915542362272,
T8,380.19300718877844,218.61745269639604,236.47354741423592,336.62019473894276,226.10276476110351,
AF4,250.45858426860462,113.99080778710669,72.55210467097102,144.7742596304984,367.51801903876236,
AF3,149.0482636981983,219.2944501190308,228.58928556495715,286.164984241462,260.862883322063,
T7,321.89151396792687,169.13790712488873,158.32394044488962,264.7030430148257,310.28433500229613,
Pz,120.75116108061037,114.99005355198018,70.31880054080129,71.92804037097947,133.8915542362272,
T8,380.19300718877844,218.61745269639604,236.47354741423592,336.62019473894276,226.10276476110351,
AF4,250.45858426860462,113.99080778710669,72.55210467097102,144.7742596304984,367.51801903876236,
AF3,149.0482636981983,219.2944501190308,228.58928556495715,286.164984241462,260.862883322063,
T7,321.89151396792687,169.13790712488873,158.32394044488962,264.7030430148257,310.28433500229613,
Pz,120.75116108061037,114.99005355198018,70.31880054080129,71.92804037097947,133.8915542362272,
T8,380.19300718877844,218.61745269639604,236.47354741423592,336.62019473894276,226.10276476110351,
AF4,250.45858426860462,113.99080778710669,72.55210467097102,144.7742596304984,367.51801903876236,
AF3,149.0482636981983,219.2944501190308,228.58928556495715,286.164984241462,260.862883322063,
T7,321.89151396792687,169.13790712488873,158.32394044488962,264.7030430148257,310.28433500229613,
Pz,120.75116108061037,114.99005355198018,70.31880054080129,71.92804037097947,133.8915542362272,
T8,380.19300718877844,218.61745269639604,236.47354741423592,336.62019473894276,226.10276476110351,
AF4,250.45858426860462,113.99080778710669,72.55210467097102,144.7742596304984,367.51801903876236,
AF3,149.0482636981983,219.2944501190308,228.58928556495715,286.164984241462,260.862883322063,
T7,321.89151396792687,169.13790712488873,158.32394044488962,264.7030430148257,310.28433500229613,
Pz,120.75116108061037,114.99005355198018,70.31880054080129,71.92804037097947,133.8915542362272,
T8,380.19300718877844,218.61745269639604,236.47354741423592,336.62019473894276,226.10276476110351,
AF4,250.45858426860462,113.99080778710669,72.55210467097102,144.7742596304984,367.51801903876236,
AF3,149.0482636981983,219.2944501190308,228.58928556495715,286.164984241462,260.862883322063,
T7,321.89151396792687,169.13790712488873,158.32394044488962,264.7030430148257,310.28433500229613,
Pz,120.75116108061037,114.99005355198018,70.31880054080129,71.92804037097947,133.8915542362272,
T8,380.19300718877844,218.61745269639604,236.47354741423592,336.62019473894276,226.10276476110351,
AF4,250.45858426860462,113.99080778710669,72.55210467097102,144.7742596304984,367.51801903876236,
AF3,149.0482636981983,219.2944501190308,228.58928556495715,286.164984241462,260.862883322063,
T7,321.89151396792687,169.13790712488873,158.32394044488962,264.7030430148257,310.28433500229613,
Pz,120.75116108061037,114.99005355198018,70.31880054080129,71.92804037097947,133.8915542362272,
T8,380.19300718877844,218.61745269639604,236.47354741423592,336.62019473894276,226.10276476110351,
AF4,250.45858426860462,113.99080778710669,72.55210467097102,144.7742596304984,367.51801903876236,
AF3,149.0482636981983,219.2944501190308,228.58928556495715,286.164984241462,260.862883322063,
T7,321.89151396792687,169.13790712488873,158.32394044488962,264.7030430148257,310.28433500229613,
Pz,120.75116108061037,114.99005355198018,70.31880054080129,71.92804037097947,133.8915542362272,
T8,380.19300718877844,218.61745269639604,236.47354741423592,336.62019473894276,226.10276476110351,
AF4,250.45858426860462,113.99080778710669,72.55210467097102,144.7742596304984,367.51801903876236,
AF3,149.0482636981983,219.2944501190308,228.58928556495715,286.164984241462,260.862883322063,
T7,321.89151396792687,169.13790712488873,158.32394044488962,264.7030430148257,310.28433500229613,
Pz,120.75116108061037,114.99005355198018,70.31880054080129,71.92804037097947,133.8915542362272,
T8,380.19300718877844,218.61745269639604,236.47354741423592,336.62019473894276,226.10276476110351,
AF4,250.45858426860462,113.99080778710669,72.55210467097102,144.7742596304984,367.51801903876236,
AF3,149.0482636981983,219.2944501190308,228.58928556495715,286.164984241462,260.862883322063,
T7,321.89151396792687,169.13790712488873,158.32394044488962,264.7030430148257,310.28433500229613,
Pz,120.75116108061037,114.99005355198018,70.31880054080129,71.92804037097947,133.8915542362272,
T8,380.19300718877844,218.61745269639604,236.47354741423592,336.62019473894276,226.10276476110351,
AF4,250.45858426860462,113.99080778710669,72.55210467097102,144.7742596304984,367.51801903876236,
AF3,149.0482636981983,219.2944501190308,228.58928556495715,286.164984241462,260.862883322063,
T7,321.89151396792687,169.13790712488873,158.32394044488962,264.7030430148257,310.28433500229613,
Pz,120.75116108061037,114.99005355198018,70.31880054080129,71.92804037097947,133.8915542362272,
T8,380.19300718877844,218.61745269639604,236.47354741423592,336.62019473894276,226.10276476110351,
AF4,250.45858426860462,113.99080778710669,72.55210467097102,144.7742596304984,367.51801903876236,
AF3,149.0482636981983,219.2944501190308,228.58928556495715,286.164984241462,260.862883322063,
T7,321.89151396792687,169.13790712488873,158.32394044488962,264.7030430148257,310.28433500229613,
Pz,120.75116108061037,114.99005355198018,70.31880054080129,71.92804037097947,133.8915542362272,
T8,380.19300718877844,218.61745269639604,236.47354741423592,336.62019473894276,226.10276476110351,
AF4,250.45858426860462,113.99080778710669,72.55210467097102,144.7742596304984,367.51801903876236,
AF3,149.0482636981983,219.2944501190308,228.58928556495715,286.164984241462,260.862883322063,
T7,321.89151396792687,169.13790712488873,158.32394044488962,264.7030430148257,310.28433500229613,
Pz,120.75116108061037,114.99005355198018,70.31880054080129,71.92804037097947,133.8915542362272,
T8,380.19300718877844,218.61745269639604,236.47354741423592,336.62019473894276,226.10276476110351,
AF4,250.45858426860462,113.99080778710669,72.55210467097102,144.7742596304984,367.51801903876236,
AF3,149.0482636981983,219.2944501190308,228.58928556495715,286.164984241462,260.862883322063,
T7,321.89151396792687,169.13790712488873,158.32394044488962,264.7030430148257,310.28433500229613,
Pz,120.75116108061037,114.99005355198018,70.31880054080129,71.92804037097947,133.8915542362272,
T8,380.19300718877844,218.61745269639604,236.47354741423592,336.62019473894276,226.10276476110351,
AF4,250.45858426860462,113.99080778710669,72.55210467097102,144.7742596304984,367.51801903876236,
AF3,149.0482636981983,219.2944501190308,228.58928556495715,286.164984241462,260.862883322063,
T7,321.89151396792687,169.13790712488873,158.32394044488962,264.7030430148257,310.28433500229613,
Pz,120.75116108061037,114.99005355198018,70.31880054080129,71.92804037097947,133.8915542362272,
T8,380.19300718877844,218.61745269639604,236.47354741423592,336.62019473894276,226.10276476110351,
AF4,250.45858426860462,113.99080778710669,72.55210467097102,144.7742596304984,367.51801903876236,
AF3,149.0482636981983,219.2944501190308,228.58928556495715,286.164984241462,260.862883322063,
T7,321.89151396792687,169.13790712488873,158.32394044488962,264.7030430148257,310.28433500229613,
Pz,120.75116108061037,114.99005355198018,70.31880054080129,71.92804037097947,133.8915542362272,
T8,380.19300718877844,218.61745269639604,236.47354741423592,336.62019473894276,226.10276476110351,
AF4,250.45858426860462,113.99080778710669,72.55210467097102,144.7742596304984,367.51801903876236,
AF3,149.0482636981983,219.2944501190308,228.58928556495715,286.164984241462,260.862883322063,
T7,321.89151396792687,169.13790712488873,158.32394044488962,264.7030430148257,310.28433500229613,
Pz,120.75116108061037,114.99005355198018,70.31880054080129,71.92804037097947,133.8915542362272,
T8,380.19300718877844,218.61745269639604,236.47354741423592,336.62019473894276,226.10276476110351,
AF4,250.45858426860462,113.99080778710669,72.55210467097102,144.7742596304984,367.51801903876236,
AF3,149.0482636981983,219.2944501190308,228.58928556495715,286.164984241462,260.862883322063,
T7,321.89151396792687,169.13790712488873,158.32394044488962,264.7030430148257,310.28433500229613,
Pz,120.75116108061037,114.99005355198018,70.31880054080129,71.92804037097947,133.8915542362272,
T8,380.19300718877844,218.61745269639604,236.47354741423592,336.62019473894276,226.10276476110351,
AF4,250.45858426860462,113.99080778710669,72.55210467097102,144.7742596304984,367.51801903876236,
AF3,149.0482636981983,219.2944501190308,228.58928556495715,286.164984241462,260.862883322063,
T7,321.89151396792687,169.13790712488873,158.32394044488962,264.7030430148257,310.28433500229613,
Pz,120.75116108061037,114.99005355198018,70.31880054080129,71.92804037097947,133.8915542362272,
T8,380.19300718877844,218.61745269639604,236.47354741423592,336.62019473894276,226.10276476110351,
AF4,250.45858426860462,113.99080778710669,72.55210467097102,144.7742596304984,367.51801903876236,
AF3,149.0482636981983,219.2944501190308,228.58928556495715,286.164984241462,260.862883322063,
T7,321.89151396792687,169.13790712488873,158.32394044488962,264.7030430148257,310.28433500229613,
Pz,120.75116108061037,114.99005355198018,70.31880054080129,71.92804037097947,133.8915542362272,
T8,380.19300718877844,218.61745269639604,236.47354741423592,336.62019473894276,226.10276476110351,
AF4,250.45858426860462,113.99080778710669,72.55210467097102,144.7742596304984,367.51801903876236,
AF3,149.0482636981983,219.2944501190308,228.58928556495715,286.164984241462,260.862883322063,
T7,321.89151396792687,169.13790712488873,158.32394044488962,264.7030430148257,310.28433500229613,
Pz,120.75116108061037,114.99005355198018,70.31880054080129,71.92804037097947,133.8915542362272,
T8,380.19300718877844,218.61745269639604,236.47354741423592,336.62019473894276,226.10276476110351,
AF4,250.45858426860462,113.99080778710669,72.55210467097102,144.7742596304984,367.51801903876236,
AF3,149.0482636981983,219.2944501190308,228.58928556495715,286.164984241462,260.862883322063,
T7,321.89151396792687,169.13790712488873,158.32394044488962,264.7030430148257,310.28433500229613,
Pz,120.75116108061037,114.99005355198018,70.31880054080129,71.92804037097947,133.8915542362272,
T8,380.19300718877844,218.61745269639604,236.47354741423592,336.62019473894276,226.10276476110351,
AF4,250.45858426860462,113.99080778710669,72.55210467097102,144.7742596304984,367.51801903876236,
AF3,149.0482636981983,219.2944501190308,228.58928556495715,286.164984241462,260.862883322063,
T7,321.89151396792687,169.13790712488873,158.32394044488962,264.7030430148257,310.28433500229613,
Pz,120.75116108061037,114.99005355198018,70.31880054080129,71.92804037097947,133.8915542362272,
T8,380.19300718877844,218.61745269639604,236.47354741423592,336.62019473894276,226.10276476110351,
AF4,250.45858426860462,113.99080778710669,72.55210467097102,144.7742596304984,367.51801903876236,
AF3,149.0482636981983,219.2944501190308,228.58928556495715,286.164984241462,260.862883322063,
T7,321.89151396792687,169.13790712488873,158.32394044488962,264.7030430148257,310.28433500229613,
Pz,120.75116108061037,114.99005355198018,70.31880054080129,71.92804037097947,133.8915542362272,
T8,380.19300718877844,218.61745269639604,236.47354741423592,336.62019473894276,226.10276476110351,
AF4,250.45858426860462,113.99080778710669,72.55210467097102,144.7742596304984,367.51801903876236,
AF3,149.0482636981983,219.2944501190308,228.58928556495715,286.164984241462,260.862883322063,
T7,321.89151396792687,169.13790712488873,158.32394044488962,264.7030430148257,310.28433500229613,
Pz,120.75116108061037,114.99005355198018,70.31880054080129,71.92804037097947,133.8915542362272,
T8,380.19300718877844,218.61745269639604,236.47354741423592,336.62019473894276,226.10276476110351,
AF4,250.45858426860462,113.99080778710669,72.55210467097102,144.7742596304984,367.51801903876236,
AF3,149.0482636981983,219.2944501190308,228.58928556495715,286.164984241462,260.862883322063,
T7,321.89151396792687,169.13790712488873,158.32394044488962,264.7030430148257,310.28433500229613,
Pz,120.75116108061037,114.99005355198018,70.31880054080129,71.92804037097947,133.8915542362272,
T8,380.19300718877844,218.61745269639604,236.47354741423592,336.62019473894276,226.10276476110351,
AF4,250.45858426860462,113.99080778710669,72.55210467097102,144.7742596304984,367.51801903876236,
AF3,149.0482636981983,219.2944501190308,228.58928556495715,286.164984241462,260.862883322063,
T7,321.89151396792687,169.13790712488873,158.32394044488962,264.7030430148257,310.28433500229613,
Pz,120.75116108061037,114.99005355198018,70.31880054080129,71.92804037097947,133.8915542362272,
T8,380.19300718877844,218.61745269639604,236.47354741423592,336.62019473894276,226.10276476110351,
AF4,250.45858426860462,113.99080778710669,72.55210467097102,144.7742596304984,367.51801903876236,
AF3,149.0482636981983,219.2944501190308,228.58928556495715,286.164984241462,260.862883322063,
T7,321.89151396792687,169.13790712488873,158.32394044488962,264.7030430148257,310.28433500229613,
Pz,120.75116108061037,114.99005355198018,70.31880054080129,71.92804037097947,133.8915542362272,
T8,380.19300718877844,218.61745269639604,236.47354741423592,336.62019473894276,226.10276476110351,
AF4,250.45858426860462,113.99080778710669,72.55210467097102,144.7742596304984,367.51801903876236,
AF3,149.0482636981983,219.2944501190308,228.58928556495715,286.164984241462,260.862883322063,
T7,321.89151396792687,169.13790712488873,158.32394044488962,264.7030430148257,310.28433500229613,
Pz,120.75116108061037,114.99005355198018,70.31880054080129,71.92804037097947,133.8915542362272,
T8,380.19300718877844,218.61745269639604,236.47354741423592,336.62019473894276,226.10276476110351,
AF4,250.45858426860462,113.99080778710669,72.55210467097102,144.7742596304984,367.51801903876236,
AF3,149.0482636981983,219.2944501190308,228.58928556495715,286.164984241462,260.862883322063,
T7,321.89151396792687,169.13790712488873,158.32394044488962,264.7030430148257,310.28433500229613,
Pz,120.75116108061037,114.99005355198018,70.31880054080129,71.92804037097947,133.8915542362272,
T8,380.19300718877844,218.61745269639604,236.47354741423592,336.62019473894276,226.10276476110351,
AF4,250.45858426860462,113.99080778710669,72.55210467097102,144.7742596304984,367.51801903876236,
AF3,117.0336586326636,191.50832822482369,368.00528873380364,187.48040261510846,291.4217650061882,
T7,283.15588764238623,288.39398470526527,225.2204698784234,191.87050407984046,268.7383457709393,
Pz,95.81202481558482,161.1454781878041,65.0695498981473,39.843392335740134,106.72515628175303,
T8,261.87966896493305,97.9733954548865,736.4289541358597,300.24834588672195,304.04512004443137,
AF4,639.91017576151,449.39411178697,641.1071851437077,161.76431136030243,300.52302461478234,
AF3,117.0336586326636,191.50832822482369,368.00528873380364,187.48040261510846,291.4217650061882,
T7,283.15588764238623,288.39398470526527,225.2204698784234,191.87050407984046,268.7383457709393,
Pz,95.81202481558482,161.1454781878041,65.0695498981473,39.843392335740134,106.72515628175303,
T8,261.87966896493305,97.9733954548865,736.4289541358597,300.24834588672195,304.04512004443137,
AF4,639.91017576151,449.39411178697,641.1071851437077,161.76431136030243,300.52302461478234,
AF3,117.0336586326636,191.50832822482369,368.00528873380364,187.48040261510846,291.4217650061882,
T7,283.15588764238623,288.39398470526527,225.2204698784234,191.87050407984046,268.7383457709393,
Pz,95.81202481558482,161.1454781878041,65.0695498981473,39.843392335740134,106.72515628175303,
T8,261.87966896493305,97.9733954548865,736.4289541358597,300.24834588672195,304.04512004443137,
AF4,639.91017576151,449.39411178697,641.1071851437077,161.76431136030243,300.52302461478234,
AF3,117.0336586326636,191.50832822482369,368.00528873380364,187.48040261510846,291.4217650061882,
T7,283.15588764238623,288.39398470526527,225.2204698784234,191.87050407984046,268.7383457709393,
Pz,95.81202481558482,161.1454781878041,65.0695498981473,39.843392335740134,106.72515628175303,
T8,261.87966896493305,97.9733954548865,736.4289541358597,300.24834588672195,304.04512004443137,
AF4,639.91017576151,449.39411178697,641.1071851437077,161.76431136030243,300.52302461478234,
AF3,117.0336586326636,191.50832822482369,368.00528873380364,187.48040261510846,291.4217650061882,
T7,283.15588764238623,288.39398470526527,225.2204698784234,191.87050407984046,268.7383457709393,
Pz,95.81202481558482,161.1454781878041,65.0695498981473,39.843392335740134,106.72515628175303,
T8,261.87966896493305,97.9733954548865,736.4289541358597,300.24834588672195,304.04512004443137,
AF4,639.91017576151,449.39411178697,641.1071851437077,161.76431136030243,300.52302461478234,
AF3,117.0336586326636,191.50832822482369,368.00528873380364,187.48040261510846,291.4217650061882,
T7,283.15588764238623,288.39398470526527,225.2204698784234,191.87050407984046,268.7383457709393,
Pz,95.81202481558482,161.1454781878041,65.0695498981473,39.843392335740134,106.72515628175303,
T8,261.87966896493305,97.9733954548865,736.4289541358597,300.24834588672195,304.04512004443137,
AF4,639.91017576151,449.39411178697,641.1071851437077,161.76431136030243,300.52302461478234,
AF3,117.0336586326636,191.50832822482369,368.00528873380364,187.48040261510846,291.4217650061882,
T7,283.15588764238623,288.39398470526527,225.2204698784234,191.87050407984046,268.7383457709393,
Pz,95.81202481558482,161.1454781878041,65.0695498981473,39.843392335740134,106.72515628175303,
T8,261.87966896493305,97.9733954548865,736.4289541358597,300.24834588672195,304.04512004443137,
AF4,639.91017576151,449.39411178697,641.1071851437077,161.76431136030243,300.52302461478234,
AF3,117.0336586326636,191.50832822482369,368.00528873380364,187.48040261510846,291.4217650061882,
T7,283.15588764238623,288.39398470526527,225.2204698784234,191.87050407984046,268.7383457709393,
Pz,95.81202481558482,161.1454781878041,65.0695498981473,39.843392335740134,106.72515628175303,
T8,261.87966896493305,97.9733954548865,736.4289541358597,300.24834588672195,304.04512004443137,
AF4,639.91017576151,449.39411178697,641.1071851437077,161.76431136030243,300.52302461478234,
AF3,117.0336586326636,191.50832822482369,368.00528873380364,187.48040261510846,291.4217650061882,
T7,283.15588764238623,288.39398470526527,225.2204698784234,191.87050407984046,268.7383457709393,
Pz,95.81202481558482,161.1454781878041,65.0695498981473,39.843392335740134,106.72515628175303,
T8,261.87966896493305,97.9733954548865,736.4289541358597,300.24834588672195,304.04512004443137,
AF4,639.91017576151,449.39411178697,641.1071851437077,161.76431136030243,300.52302461478234,
AF3,117.0336586326636,191.50832822482369,368.00528873380364,187.48040261510846,291.4217650061882,
T7,283.15588764238623,288.39398470526527,225.2204698784234,191.87050407984046,268.7383457709393,
Pz,95.81202481558482,161.1454781878041,65.0695498981473,39.843392335740134,106.72515628175303,
T8,261.87966896493305,97.9733954548865,736.4289541358597,300.24834588672195,304.04512004443137,
AF4,639.91017576151,449.39411178697,641.1071851437077,161.76431136030243,300.52302461478234,
AF3,117.0336586326636,191.50832822482369,368.00528873380364,187.48040261510846,291.4217650061882,
T7,283.15588764238623,288.39398470526527,225.2204698784234,191.87050407984046,268.7383457709393,
Pz,95.81202481558482,161.1454781878041,65.0695498981473,39.843392335740134,106.72515628175303,
T8,261.87966896493305,97.9733954548865,736.4289541358597,300.24834588672195,304.04512004443137,
AF4,639.91017576151,449.39411178697,641.1071851437077,161.76431136030243,300.52302461478234,
AF3,117.0336586326636,191.50832822482369,368.00528873380364,187.48040261510846,291.4217650061882,
T7,283.15588764238623,288.39398470526527,225.2204698784234,191.87050407984046,268.7383457709393,
Pz,95.81202481558482,161.1454781878041,65.0695498981473,39.843392335740134,106.72515628175303,
T8,261.87966896493305,97.9733954548865,736.4289541358597,300.24834588672195,304.04512004443137,
AF4,639.91017576151,449.39411178697,641.1071851437077,161.76431136030243,300.52302461478234,
AF3,117.0336586326636,191.50832822482369,368.00528873380364,187.48040261510846,291.4217650061882,
T7,283.15588764238623,288.39398470526527,225.2204698784234,191.87050407984046,268.7383457709393,
Pz,95.81202481558482,161.1454781878041,65.0695498981473,39.843392335740134,106.72515628175303,
T8,261.87966896493305,97.9733954548865,736.4289541358597,300.24834588672195,304.04512004443137,
AF4,639.91017576151,449.39411178697,641.1071851437077,161.76431136030243,300.52302461478234,
AF3,117.0336586326636,191.50832822482369,368.00528873380364,187.48040261510846,291.4217650061882,
T7,283.15588764238623,288.39398470526527,225.2204698784234,191.87050407984046,268.7383457709393,
Pz,95.81202481558482,161.1454781878041,65.0695498981473,39.843392335740134,106.72515628175303,
T8,261.87966896493305,97.9733954548865,736.4289541358597,300.24834588672195,304.04512004443137,
AF4,639.91017576151,449.39411178697,641.1071851437077,161.76431136030243,300.52302461478234,
AF3,117.0336586326636,191.50832822482369,368.00528873380364,187.48040261510846,291.4217650061882,
T7,283.15588764238623,288.39398470526527,225.2204698784234,191.87050407984046,268.7383457709393,
Pz,95.81202481558482,161.1454781878041,65.0695498981473,39.843392335740134,106.72515628175303,
T8,261.87966896493305,97.9733954548865,736.4289541358597,300.24834588672195,304.04512004443137,
AF4,639.91017576151,449.39411178697,641.1071851437077,161.76431136030243,300.52302461478234,
AF3,117.0336586326636,191.50832822482369,368.00528873380364,187.48040261510846,291.4217650061882,
T7,283.15588764238623,288.39398470526527,225.2204698784234,191.87050407984046,268.7383457709393,
Pz,95.81202481558482,161.1454781878041,65.0695498981473,39.843392335740134,106.72515628175303,
T8,261.87966896493305,97.9733954548865,736.4289541358597,300.24834588672195,304.04512004443137,
AF4,639.91017576151,449.39411178697,641.1071851437077,161.76431136030243,300.52302461478234,
AF3,117.0336586326636,191.50832822482369,368.00528873380364,187.48040261510846,291.4217650061882,
T7,283.15588764238623,288.39398470526527,225.2204698784234,191.87050407984046,268.7383457709393,
Pz,95.81202481558482,161.1454781878041,65.0695498981473,39.843392335740134,106.72515628175303,
T8,261.87966896493305,97.9733954548865,736.4289541358597,300.24834588672195,304.04512004443137,
AF4,639.91017576151,449.39411178697,641.1071851437077,161.76431136030243,300.52302461478234,
AF3,117.0336586326636,191.50832822482369,368.00528873380364,187.48040261510846,291.4217650061882,
T7,283.15588764238623,288.39398470526527,225.2204698784234,191.87050407984046,268.7383457709393,
Pz,95.81202481558482,161.1454781878041,65.0695498981473,39.843392335740134,106.72515628175303,
T8,261.87966896493305,97.9733954548865,736.4289541358597,300.24834588672195,304.04512004443137,
AF4,639.91017576151,449.39411178697,641.1071851437077,161.76431136030243,300.52302461478234,
AF3,117.0336586326636,191.50832822482369,368.00528873380364,187.48040261510846,291.4217650061882,
T7,283.15588764238623,288.39398470526527,225.2204698784234,191.87050407984046,268.7383457709393,
Pz,95.81202481558482,161.1454781878041,65.0695498981473,39.843392335740134,106.72515628175303,
T8,261.87966896493305,97.9733954548865,736.4289541358597,300.24834588672195,304.04512004443137,
AF4,639.91017576151,449.39411178697,641.1071851437077,161.76431136030243,300.52302461478234,
AF3,117.0336586326636,191.50832822482369,368.00528873380364,187.48040261510846,291.4217650061882,
T7,283.15588764238623,288.39398470526527,225.2204698784234,191.87050407984046,268.7383457709393,
Pz,95.81202481558482,161.1454781878041,65.0695498981473,39.843392335740134,106.72515628175303,
T8,261.87966896493305,97.9733954548865,736.4289541358597,300.24834588672195,304.04512004443137,
AF4,639.91017576151,449.39411178697,641.1071851437077,161.76431136030243,300.52302461478234,
AF3,117.0336586326636,191.50832822482369,368.00528873380364,187.48040261510846,291.4217650061882,
T7,283.15588764238623,288.39398470526527,225.2204698784234,191.87050407984046,268.7383457709393,
Pz,95.81202481558482,161.1454781878041,65.0695498981473,39.843392335740134,106.72515628175303,
T8,261.87966896493305,97.9733954548865,736.4289541358597,300.24834588672195,304.04512004443137,
AF4,639.91017576151,449.39411178697,641.1071851437077,161.76431136030243,300.52302461478234,
AF3,117.0336586326636,191.50832822482369,368.00528873380364,187.48040261510846,291.4217650061882,
T7,283.15588764238623,288.39398470526527,225.2204698784234,191.87050407984046,268.7383457709393,
Pz,95.81202481558482,161.1454781878041,65.0695498981473,39.843392335740134,106.72515628175303,
T8,261.87966896493305,97.9733954548865,736.4289541358597,300.24834588672195,304.04512004443137,
AF4,639.91017576151,449.39411178697,641.1071851437077,161.76431136030243,300.52302461478234,
AF3,117.0336586326636,191.50832822482369,368.00528873380364,187.48040261510846,291.4217650061882,
T7,283.15588764238623,288.39398470526527,225.2204698784234,191.87050407984046,268.7383457709393,
Pz,95.81202481558482,161.1454781878041,65.0695498981473,39.843392335740134,106.72515628175303,
T8,261.87966896493305,97.9733954548865,736.4289541358597,300.24834588672195,304.04512004443137,
AF4,639.91017576151,449.39411178697,641.1071851437077,161.76431136030243,300.52302461478234,
AF3,117.0336586326636,191.50832822482369,368.00528873380364,187.48040261510846,291.4217650061882,
T7,283.15588764238623,288.39398470526527,225.2204698784234,191.87050407984046,268.7383457709393,
Pz,95.81202481558482,161.1454781878041,65.0695498981473,39.843392335740134,106.72515628175303,
T8,261.87966896493305,97.9733954548865,736.4289541358597,300.24834588672195,304.04512004443137,
AF4,639.91017576151,449.39411178697,641.1071851437077,161.76431136030243,300.52302461478234,
AF3,117.0336586326636,191.50832822482369,368.00528873380364,187.48040261510846,291.4217650061882,
T7,283.15588764238623,288.39398470526527,225.2204698784234,191.87050407984046,268.7383457709393,
Pz,95.81202481558482,161.1454781878041,65.0695498981473,39.843392335740134,106.72515628175303,
T8,261.87966896493305,97.9733954548865,736.4289541358597,300.24834588672195,304.04512004443137,
AF4,639.91017576151,449.39411178697,641.1071851437077,161.76431136030243,300.52302461478234,
AF3,117.0336586326636,191.50832822482369,368.00528873380364,187.48040261510846,291.4217650061882,
T7,283.15588764238623,288.39398470526527,225.2204698784234,191.87050407984046,268.7383457709393,
Pz,95.81202481558482,161.1454781878041,65.0695498981473,39.843392335740134,106.72515628175303,
T8,261.87966896493305,97.9733954548865,736.4289541358597,300.24834588672195,304.04512004443137,
AF4,639.91017576151,449.39411178697,641.1071851437077,161.76431136030243,300.52302461478234,
AF3,117.0336586326636,191.50832822482369,368.00528873380364,187.48040261510846,291.4217650061882,
T7,283.15588764238623,288.39398470526527,225.2204698784234,191.87050407984046,268.7383457709393,
Pz,95.81202481558482,161.1454781878041,65.0695498981473,39.843392335740134,106.72515628175303,
T8,261.87966896493305,97.9733954548865,736.4289541358597,300.24834588672195,304.04512004443137,
AF4,639.91017576151,449.39411178697,641.1071851437077,161.76431136030243,300.52302461478234,
AF3,117.0336586326636,191.50832822482369,368.00528873380364,187.48040261510846,291.4217650061882,
T7,283.15588764238623,288.39398470526527,225.2204698784234,191.87050407984046,268.7383457709393,
Pz,95.81202481558482,161.1454781878041,65.0695498981473,39.843392335740134,106.72515628175303,
T8,261.87966896493305,97.9733954548865,736.4289541358597,300.24834588672195,304.04512004443137,
AF4,639.91017576151,449.39411178697,641.1071851437077,161.76431136030243,300.52302461478234,
AF3,117.0336586326636,191.50832822482369,368.00528873380364,187.48040261510846,291.4217650061882,
T7,283.15588764238623,288.39398470526527,225.2204698784234,191.87050407984046,268.7383457709393,
Pz,95.81202481558482,161.1454781878041,65.0695498981473,39.843392335740134,106.72515628175303,
T8,261.87966896493305,97.9733954548865,736.4289541358597,300.24834588672195,304.04512004443137,
AF4,639.91017576151,449.39411178697,641.1071851437077,161.76431136030243,300.52302461478234,
AF3,117.0336586326636,191.50832822482369,368.00528873380364,187.48040261510846,291.4217650061882,
T7,283.15588764238623,288.39398470526527,225.2204698784234,191.87050407984046,268.7383457709393,
Pz,95.81202481558482,161.1454781878041,65.0695498981473,39.843392335740134,106.72515628175303,
T8,261.87966896493305,97.9733954548865,736.4289541358597,300.24834588672195,304.04512004443137,
AF4,639.91017576151,449.39411178697,641.1071851437077,161.76431136030243,300.52302461478234,
AF3,117.0336586326636,191.50832822482369,368.00528873380364,187.48040261510846,291.4217650061882,
T7,283.15588764238623,288.39398470526527,225.2204698784234,191.87050407984046,268.7383457709393,
Pz,95.81202481558482,161.1454781878041,65.0695498981473,39.843392335740134,106.72515628175303,
T8,261.87966896493305,97.9733954548865,736.4289541358597,300.24834588672195,304.04512004443137,
AF4,639.91017576151,449.39411178697,641.1071851437077,161.76431136030243,300.52302461478234,
AF3,117.0336586326636,191.50832822482369,368.00528873380364,187.48040261510846,291.4217650061882,
T7,283.15588764238623,288.39398470526527,225.2204698784234,191.87050407984046,268.7383457709393,
Pz,95.81202481558482,161.1454781878041,65.0695498981473,39.843392335740134,106.72515628175303,
T8,261.87966896493305,97.9733954548865,736.4289541358597,300.24834588672195,304.04512004443137,
AF4,639.91017576151,449.39411178697,641.1071851437077,161.76431136030243,300.52302461478234,
AF3,117.0336586326636,191.50832822482369,368.00528873380364,187.48040261510846,291.4217650061882,
T7,283.15588764238623,288.39398470526527,225.2204698784234,191.87050407984046,268.7383457709393,
Pz,95.81202481558482,161.1454781878041,65.0695498981473,39.843392335740134,106.72515628175303,
T8,261.87966896493305,97.9733954548865,736.4289541358597,300.24834588672195,304.04512004443137,
AF4,639.91017576151,449.39411178697,641.1071851437077,161.76431136030243,300.52302461478234,
AF3,117.0336586326636,191.50832822482369,368.00528873380364,187.48040261510846,291.4217650061882,
T7,283.15588764238623,288.39398470526527,225.2204698784234,191.87050407984046,268.7383457709393,
Pz,95.81202481558482,161.1454781878041,65.0695498981473,39.843392335740134,106.72515628175303,
T8,261.87966896493305,97.9733954548865,736.4289541358597,300.24834588672195,304.04512004443137,
AF4,639.91017576151,449.39411178697,641.1071851437077,161.76431136030243,300.52302461478234,
AF3,117.0336586326636,191.50832822482369,368.00528873380364,187.48040261510846,291.4217650061882,
T7,283.15588764238623,288.39398470526527,225.2204698784234,191.87050407984046,268.7383457709393,
Pz,95.81202481558482,161.1454781878041,65.0695498981473,39.843392335740134,106.72515628175303,
T8,261.87966896493305,97.9733954548865,736.4289541358597,300.24834588672195,304.04512004443137,
AF4,639.91017576151,449.39411178697,641.1071851437077,161.76431136030243,300.52302461478234,
AF3,117.0336586326636,191.50832822482369,368.00528873380364,187.48040261510846,291.4217650061882,
T7,283.15588764238623,288.39398470526527,225.2204698784234,191.87050407984046,268.7383457709393,
Pz,95.81202481558482,161.1454781878041,65.0695498981473,39.843392335740134,106.72515628175303,
T8,261.87966896493305,97.9733954548865,736.4289541358597,300.24834588672195,304.04512004443137,
AF4,639.91017576151,449.39411178697,641.1071851437077,161.76431136030243,300.52302461478234,
AF3,117.0336586326636,191.50832822482369,368.00528873380364,187.48040261510846,291.4217650061882,
T7,283.15588764238623,288.39398470526527,225.2204698784234,191.87050407984046,268.7383457709393,
Pz,95.81202481558482,161.1454781878041,65.0695498981473,39.843392335740134,106.72515628175303,
T8,261.87966896493305,97.9733954548865,736.4289541358597,300.24834588672195,304.04512004443137,
AF4,639.91017576151,449.39411178697,641.1071851437077,161.76431136030243,300.52302461478234,
AF3,117.0336586326636,191.50832822482369,368.00528873380364,187.48040261510846,291.4217650061882,
T7,283.15588764238623,288.39398470526527,225.2204698784234,191.87050407984046,268.7383457709393,
Pz,95.81202481558482,161.1454781878041,65.0695498981473,39.843392335740134,106.72515628175303,
T8,261.87966896493305,97.9733954548865,736.4289541358597,300.24834588672195,304.04512004443137,
AF4,639.91017576151,449.39411178697,641.1071851437077,161.76431136030243,300.52302461478234,
AF3,117.0336586326636,191.50832822482369,368.00528873380364,187.48040261510846,291.4217650061882,
T7,283.15588764238623,288.39398470526527,225.2204698784234,191.87050407984046,268.7383457709393,
Pz,95.81202481558482,161.1454781878041,65.0695498981473,39.843392335740134,106.72515628175303,
T8,261.87966896493305,97.9733954548865,736.4289541358597,300.24834588672195,304.04512004443137,
AF4,639.91017576151,449.39411178697,641.1071851437077,161.76431136030243,300.52302461478234,
AF3,117.0336586326636,191.50832822482369,368.00528873380364,187.48040261510846,291.4217650061882,
T7,283.15588764238623,288.39398470526527,225.2204698784234,191.87050407984046,268.7383457709393,
Pz,95.81202481558482,161.1454781878041,65.0695498981473,39.843392335740134,106.72515628175303,
T8,261.87966896493305,97.9733954548865,736.4289541358597,300.24834588672195,304.04512004443137,
AF4,639.91017576151,449.39411178697,641.1071851437077,161.76431136030243,300.52302461478234,
AF3,117.0336586326636,191.50832822482369,368.00528873380364,187.48040261510846,291.4217650061882,
T7,283.15588764238623,288.39398470526527,225.2204698784234,191.87050407984046,268.7383457709393,
Pz,95.81202481558482,161.1454781878041,65.0695498981473,39.843392335740134,106.72515628175303,
T8,261.87966896493305,97.9733954548865,736.4289541358597,300.24834588672195,304.04512004443137,
AF4,639.91017576151,449.39411178697,641.1071851437077,161.76431136030243,300.52302461478234,
AF3,117.0336586326636,191.50832822482369,368.00528873380364,187.48040261510846,291.4217650061882,
T7,283.15588764238623,288.39398470526527,225.2204698784234,191.87050407984046,268.7383457709393,
Pz,95.81202481558482,161.1454781878041,65.0695498981473,39.843392335740134,106.72515628175303,
T8,261.87966896493305,97.9733954548865,736.4289541358597,300.24834588672195,304.04512004443137,
AF4,639.91017576151,449.39411178697,641.1071851437077,161.76431136030243,300.52302461478234,
AF3,117.0336586326636,191.50832822482369,368.00528873380364,187.48040261510846,291.4217650061882,
T7,283.15588764238623,288.39398470526527,225.2204698784234,191.87050407984046,268.7383457709393,
Pz,95.81202481558482,161.1454781878041,65.0695498981473,39.843392335740134,106.72515628175303,
T8,261.87966896493305,97.9733954548865,736.4289541358597,300.24834588672195,304.04512004443137,
AF4,639.91017576151,449.39411178697,641.1071851437077,161.76431136030243,300.52302461478234,
AF3,117.0336586326636,191.50832822482369,368.00528873380364,187.48040261510846,291.4217650061882,
T7,283.15588764238623,288.39398470526527,225.2204698784234,191.87050407984046,268.7383457709393,
Pz,95.81202481558482,161.1454781878041,65.0695498981473,39.843392335740134,106.72515628175303,
T8,261.87966896493305,97.9733954548865,736.4289541358597,300.24834588672195,304.04512004443137,
AF4,639.91017576151,449.39411178697,641.1071851437077,161.76431136030243,300.52302461478234,
AF3,117.0336586326636,191.50832822482369,368.00528873380364,187.48040261510846,291.4217650061882,
T7,283.15588764238623,288.39398470526527,225.2204698784234,191.87050407984046,268.7383457709393,
Pz,95.81202481558482,161.1454781878041,65.0695498981473,39.843392335740134,106.72515628175303,
T8,261.87966896493305,97.9733954548865,736.4289541358597,300.24834588672195,304.04512004443137,
AF4,639.91017576151,449.39411178697,641.1071851437077,161.76431136030243,300.52302461478234,
AF3,117.0336586326636,191.50832822482369,368.00528873380364,187.48040261510846,291.4217650061882,
T7,283.15588764238623,288.39398470526527,225.2204698784234,191.87050407984046,268.7383457709393,
Pz,95.81202481558482,161.1454781878041,65.0695498981473,39.843392335740134,106.72515628175303,
T8,261.87966896493305,97.9733954548865,736.4289541358597,300.24834588672195,304.04512004443137,
AF4,639.91017576151,449.39411178697,641.1071851437077,161.76431136030243,300.52302461478234,
AF3,117.0336586326636,191.50832822482369,368.00528873380364,187.48040261510846,291.4217650061882,
T7,283.15588764238623,288.39398470526527,225.2204698784234,191.87050407984046,268.7383457709393,
Pz,95.81202481558482,161.1454781878041,65.0695498981473,39.843392335740134,106.72515628175303,
T8,261.87966896493305,97.9733954548865,736.4289541358597,300.24834588672195,304.04512004443137,
AF4,639.91017576151,449.39411178697,641.1071851437077,161.76431136030243,300.52302461478234,
AF3,117.0336586326636,191.50832822482369,368.00528873380364,187.48040261510846,291.4217650061882,
T7,283.15588764238623,288.39398470526527,225.2204698784234,191.87050407984046,268.7383457709393,
Pz,95.81202481558482,161.1454781878041,65.0695498981473,39.843392335740134,106.72515628175303,
T8,261.87966896493305,97.9733954548865,736.4289541358597,300.24834588672195,304.04512004443137,
AF4,639.91017576151,449.39411178697,641.1071851437077,161.76431136030243,300.52302461478234,
AF3,117.0336586326636,191.50832822482369,368.00528873380364,187.48040261510846,291.4217650061882,
T7,283.15588764238623,288.39398470526527,225.2204698784234,191.87050407984046,268.7383457709393,
Pz,95.81202481558482,161.1454781878041,65.0695498981473,39.843392335740134,106.72515628175303,
T8,261.87966896493305,97.9733954548865,736.4289541358597,300.24834588672195,304.04512004443137,
AF4,639.91017576151,449.39411178697,641.1071851437077,161.76431136030243,300.52302461478234,
AF3,117.0336586326636,191.50832822482369,368.00528873380364,187.48040261510846,291.4217650061882,
T7,283.15588764238623,288.39398470526527,225.2204698784234,191.87050407984046,268.7383457709393,
Pz,95.81202481558482,161.1454781878041,65.0695498981473,39.843392335740134,106.72515628175303,
T8,261.87966896493305,97.9733954548865,736.4289541358597,300.24834588672195,304.04512004443137,
AF4,639.91017576151,449.39411178697,641.1071851437077,161.76431136030243,300.52302461478234,
AF3,117.0336586326636,191.50832822482369,368.00528873380364,187.48040261510846,291.4217650061882,
T7,283.15588764238623,288.39398470526527,225.2204698784234,191.87050407984046,268.7383457709393,
Pz,95.81202481558482,161.1454781878041,65.0695498981473,39.843392335740134,106.72515628175303,
T8,261.87966896493305,97.9733954548865,736.4289541358597,300.24834588672195,304.04512004443137,
AF4,639.91017576151,449.39411178697,641.1071851437077,161.76431136030243,300.52302461478234,
AF3,117.0336586326636,191.50832822482369,368.00528873380364,187.48040261510846,291.4217650061882,
T7,283.15588764238623,288.39398470526527,225.2204698784234,191.87050407984046,268.7383457709393,
Pz,95.81202481558482,161.1454781878041,65.0695498981473,39.843392335740134,106.72515628175303,
T8,261.87966896493305,97.9733954548865,736.4289541358597,300.24834588672195,304.04512004443137,
AF4,639.91017576151,449.39411178697,641.1071851437077,161.76431136030243,300.52302461478234,
AF3,117.0336586326636,191.50832822482369,368.00528873380364,187.48040261510846,291.4217650061882,
T7,283.15588764238623,288.39398470526527,225.2204698784234,191.87050407984046,268.7383457709393,
Pz,95.81202481558482,161.1454781878041,65.0695498981473,39.843392335740134,106.72515628175303,
T8,261.87966896493305,97.9733954548865,736.4289541358597,300.24834588672195,304.04512004443137,
AF4,639.91017576151,449.39411178697,641.1071851437077,161.76431136030243,300.52302461478234,
AF3,117.0336586326636,191.50832822482369,368.00528873380364,187.48040261510846,291.4217650061882,
T7,283.15588764238623,288.39398470526527,225.2204698784234,191.87050407984046,268.7383457709393,
Pz,95.81202481558482,161.1454781878041,65.0695498981473,39.843392335740134,106.72515628175303,
T8,261.87966896493305,97.9733954548865,736.4289541358597,300.24834588672195,304.04512004443137,
AF4,639.91017576151,449.39411178697,641.1071851437077,161.76431136030243,300.52302461478234,
AF3,117.0336586326636,191.50832822482369,368.00528873380364,187.48040261510846,291.4217650061882,
T7,283.15588764238623,288.39398470526527,225.2204698784234,191.87050407984046,268.7383457709393,
Pz,95.81202481558482,161.1454781878041,65.0695498981473,39.843392335740134,106.72515628175303,
T8,261.87966896493305,97.9733954548865,736.4289541358597,300.24834588672195,304.04512004443137,
AF4,639.91017576151,449.39411178697,641.1071851437077,161.76431136030243,300.52302461478234,
AF3,117.0336586326636,191.50832822482369,368.00528873380364,187.48040261510846,291.4217650061882,
T7,283.15588764238623,288.39398470526527,225.2204698784234,191.87050407984046,268.7383457709393,
Pz,95.81202481558482,161.1454781878041,65.0695498981473,39.843392335740134,106.72515628175303,
T8,261.87966896493305,97.9733954548865,736.4289541358597,300.24834588672195,304.04512004443137,
AF4,639.91017576151,449.39411178697,641.1071851437077,161.76431136030243,300.52302461478234,
AF3,117.0336586326636,191.50832822482369,368.00528873380364,187.48040261510846,291.4217650061882,
T7,283.15588764238623,288.39398470526527,225.2204698784234,191.87050407984046,268.7383457709393,
Pz,95.81202481558482,161.1454781878041,65.0695498981473,39.843392335740134,106.72515628175303,
T8,261.87966896493305,97.9733954548865,736.4289541358597,300.24834588672195,304.04512004443137,
AF4,639.91017576151,449.39411178697,641.1071851437077,161.76431136030243,300.52302461478234,
AF3,117.0336586326636,191.50832822482369,368.00528873380364,187.48040261510846,291.4217650061882,
T7,283.15588764238623,288.39398470526527,225.2204698784234,191.87050407984046,268.7383457709393,
Pz,95.81202481558482,161.1454781878041,65.0695498981473,39.843392335740134,106.72515628175303,
T8,261.87966896493305,97.9733954548865,736.4289541358597,300.24834588672195,304.04512004443137,
AF4,639.91017576151,449.39411178697,641.1071851437077,161.76431136030243,300.52302461478234,
AF3,117.0336586326636,191.50832822482369,368.00528873380364,187.48040261510846,291.4217650061882,
T7,283.15588764238623,288.39398470526527,225.2204698784234,191.87050407984046,268.7383457709393,
Pz,95.81202481558482,161.1454781878041,65.0695498981473,39.843392335740134,106.72515628175303,
T8,261.87966896493305,97.9733954548865,736.4289541358597,300.24834588672195,304.04512004443137,
AF4,639.91017576151,449.39411178697,641.1071851437077,161.76431136030243,300.52302461478234,
AF3,117.0336586326636,191.50832822482369,368.00528873380364,187.48040261510846,291.4217650061882,
T7,283.15588764238623,288.39398470526527,225.2204698784234,191.87050407984046,268.7383457709393,
Pz,95.81202481558482,161.1454781878041,65.0695498981473,39.843392335740134,106.72515628175303,
T8,261.87966896493305,97.9733954548865,736.4289541358597,300.24834588672195,304.04512004443137,
AF4,639.91017576151,449.39411178697,641.1071851437077,161.76431136030243,300.52302461478234,
AF3,117.0336586326636,191.50832822482369,368.00528873380364,187.48040261510846,291.4217650061882,
T7,283.15588764238623,288.39398470526527,225.2204698784234,191.87050407984046,268.7383457709393,
Pz,95.81202481558482,161.1454781878041,65.0695498981473,39.843392335740134,106.72515628175303,
T8,261.87966896493305,97.9733954548865,736.4289541358597,300.24834588672195,304.04512004443137,
AF4,639.91017576151,449.39411178697,641.1071851437077,161.76431136030243,300.52302461478234,
AF3,117.0336586326636,191.50832822482369,368.00528873380364,187.48040261510846,291.4217650061882,
T7,283.15588764238623,288.39398470526527,225.2204698784234,191.87050407984046,268.7383457709393,
Pz,95.81202481558482,161.1454781878041,65.0695498981473,39.843392335740134,106.72515628175303,
T8,261.87966896493305,97.9733954548865,736.4289541358597,300.24834588672195,304.04512004443137,
AF4,639.91017576151,449.39411178697,641.1071851437077,161.76431136030243,300.52302461478234,
AF3,117.0336586326636,191.50832822482369,368.00528873380364,187.48040261510846,291.4217650061882,
T7,283.15588764238623,288.39398470526527,225.2204698784234,191.87050407984046,268.7383457709393,
Pz,95.81202481558482,161.1454781878041,65.0695498981473,39.843392335740134,106.72515628175303,
T8,261.87966896493305,97.9733954548865,736.4289541358597,300.24834588672195,304.04512004443137,
AF4,639.91017576151,449.39411178697,641.1071851437077,161.76431136030243,300.52302461478234,
AF3,117.0336586326636,191.50832822482369,368.00528873380364,187.48040261510846,291.4217650061882,
T7,283.15588764238623,288.39398470526527,225.2204698784234,191.87050407984046,268.7383457709393,
Pz,95.81202481558482,161.1454781878041,65.0695498981473,39.843392335740134,106.72515628175303,
T8,261.87966896493305,97.9733954548865,736.4289541358597,300.24834588672195,304.04512004443137,
AF4,639.91017576151,449.39411178697,641.1071851437077,161.76431136030243,300.52302461478234,
AF3,117.0336586326636,191.50832822482369,368.00528873380364,187.48040261510846,291.4217650061882,
T7,283.15588764238623,288.39398470526527,225.2204698784234,191.87050407984046,268.7383457709393,
Pz,95.81202481558482,161.1454781878041,65.0695498981473,39.843392335740134,106.72515628175303,
T8,261.87966896493305,97.9733954548865,736.4289541358597,300.24834588672195,304.04512004443137,
AF4,639.91017576151,449.39411178697,641.1071851437077,161.76431136030243,300.52302461478234,
AF3,117.0336586326636,191.50832822482369,368.00528873380364,187.48040261510846,291.4217650061882,
T7,283.15588764238623,288.39398470526527,225.2204698784234,191.87050407984046,268.7383457709393,
Pz,95.81202481558482,161.1454781878041,65.0695498981473,39.843392335740134,106.72515628175303,
T8,261.87966896493305,97.9733954548865,736.4289541358597,300.24834588672195,304.04512004443137,
AF4,639.91017576151,449.39411178697,641.1071851437077,161.76431136030243,300.52302461478234,
AF3,117.0336586326636,191.50832822482369,368.00528873380364,187.48040261510846,291.4217650061882,
T7,283.15588764238623,288.39398470526527,225.2204698784234,191.87050407984046,268.7383457709393,
Pz,95.81202481558482,161.1454781878041,65.0695498981473,39.843392335740134,106.72515628175303,
T8,261.87966896493305,97.9733954548865,736.4289541358597,300.24834588672195,304.04512004443137,
AF4,639.91017576151,449.39411178697,641.1071851437077,161.76431136030243,300.52302461478234,
AF3,117.0336586326636,191.50832822482369,368.00528873380364,187.48040261510846,291.4217650061882,
T7,283.15588764238623,288.39398470526527,225.2204698784234,191.87050407984046,268.7383457709393,
Pz,95.81202481558482,161.1454781878041,65.0695498981473,39.843392335740134,106.72515628175303,
T8,261.87966896493305,97.9733954548865,736.4289541358597,300.24834588672195,304.04512004443137,
AF4,639.91017576151,449.39411178697,641.1071851437077,161.76431136030243,300.52302461478234,
AF3,117.0336586326636,191.50832822482369,368.00528873380364,187.48040261510846,291.4217650061882,
T7,283.15588764238623,288.39398470526527,225.2204698784234,191.87050407984046,268.7383457709393,
Pz,95.81202481558482,161.1454781878041,65.0695498981473,39.843392335740134,106.72515628175303,
T8,261.87966896493305,97.9733954548865,736.4289541358597,300.24834588672195,304.04512004443137,
AF4,639.91017576151,449.39411178697,641.1071851437077,161.76431136030243,300.52302461478234,
AF3,117.0336586326636,191.50832822482369,368.00528873380364,187.48040261510846,291.4217650061882,
T7,283.15588764238623,288.39398470526527,225.2204698784234,191.87050407984046,268.7383457709393,
Pz,95.81202481558482,161.1454781878041,65.0695498981473,39.843392335740134,106.72515628175303,
T8,261.87966896493305,97.9733954548865,736.4289541358597,300.24834588672195,304.04512004443137,
AF4,639.91017576151,449.39411178697,641.1071851437077,161.76431136030243,300.52302461478234,
AF3,117.0336586326636,191.50832822482369,368.00528873380364,187.48040261510846,291.4217650061882,
T7,283.15588764238623,288.39398470526527,225.2204698784234,191.87050407984046,268.7383457709393,
Pz,95.81202481558482,161.1454781878041,65.0695498981473,39.843392335740134,106.72515628175303,
T8,261.87966896493305,97.9733954548865,736.4289541358597,300.24834588672195,304.04512004443137,
AF4,639.91017576151,449.39411178697,641.1071851437077,161.76431136030243,300.52302461478234,
AF3,117.0336586326636,191.50832822482369,368.00528873380364,187.48040261510846,291.4217650061882,
T7,283.15588764238623,288.39398470526527,225.2204698784234,191.87050407984046,268.7383457709393,
Pz,95.81202481558482,161.1454781878041,65.0695498981473,39.843392335740134,106.72515628175303,
T8,261.87966896493305,97.9733954548865,736.4289541358597,300.24834588672195,304.04512004443137,
AF4,639.91017576151,449.39411178697,641.1071851437077,161.76431136030243,300.52302461478234,
AF3,117.0336586326636,191.50832822482369,368.00528873380364,187.48040261510846,291.4217650061882,
T7,283.15588764238623,288.39398470526527,225.2204698784234,191.87050407984046,268.7383457709393,
Pz,95.81202481558482,161.1454781878041,65.0695498981473,39.843392335740134,106.72515628175303,
T8,261.87966896493305,97.9733954548865,736.4289541358597,300.24834588672195,304.04512004443137,
AF4,639.91017576151,449.39411178697,641.1071851437077,161.76431136030243,300.52302461478234,
AF3,117.0336586326636,191.50832822482369,368.00528873380364,187.48040261510846,291.4217650061882,
T7,283.15588764238623,288.39398470526527,225.2204698784234,191.87050407984046,268.7383457709393,
Pz,95.81202481558482,161.1454781878041,65.0695498981473,39.843392335740134,106.72515628175303,
T8,261.87966896493305,97.9733954548865,736.4289541358597,300.24834588672195,304.04512004443137,
AF4,639.91017576151,449.39411178697,641.1071851437077,161.76431136030243,300.52302461478234,
AF3,117.0336586326636,191.50832822482369,368.00528873380364,187.48040261510846,291.4217650061882,
T7,283.15588764238623,288.39398470526527,225.2204698784234,191.87050407984046,268.7383457709393,
Pz,95.81202481558482,161.1454781878041,65.0695498981473,39.843392335740134,106.72515628175303,
T8,261.87966896493305,97.9733954548865,736.4289541358597,300.24834588672195,304.04512004443137,
AF4,639.91017576151,449.39411178697,641.1071851437077,161.76431136030243,300.52302461478234,
AF3,117.0336586326636,191.50832822482369,368.00528873380364,187.48040261510846,291.4217650061882,
T7,283.15588764238623,288.39398470526527,225.2204698784234,191.87050407984046,268.7383457709393,
Pz,95.81202481558482,161.1454781878041,65.0695498981473,39.843392335740134,106.72515628175303,
T8,261.87966896493305,97.9733954548865,736.4289541358597,300.24834588672195,304.04512004443137,
AF4,639.91017576151,449.39411178697,641.1071851437077,161.76431136030243,300.52302461478234,
AF3,117.0336586326636,191.50832822482369,368.00528873380364,187.48040261510846,291.4217650061882,
T7,283.15588764238623,288.39398470526527,225.2204698784234,191.87050407984046,268.7383457709393,
Pz,95.81202481558482,161.1454781878041,65.0695498981473,39.843392335740134,106.72515628175303,
T8,261.87966896493305,97.9733954548865,736.4289541358597,300.24834588672195,304.04512004443137,
AF4,639.91017576151,449.39411178697,641.1071851437077,161.76431136030243,300.52302461478234,
AF3,117.0336586326636,191.50832822482369,368.00528873380364,187.48040261510846,291.4217650061882,
T7,283.15588764238623,288.39398470526527,225.2204698784234,191.87050407984046,268.7383457709393,
Pz,95.81202481558482,161.1454781878041,65.0695498981473,39.843392335740134,106.72515628175303,
T8,261.87966896493305,97.9733954548865,736.4289541358597,300.24834588672195,304.04512004443137,
AF4,639.91017576151,449.39411178697,641.1071851437077,161.76431136030243,300.52302461478234,
AF3,117.0336586326636,191.50832822482369,368.00528873380364,187.48040261510846,291.4217650061882,
T7,283.15588764238623,288.39398470526527,225.2204698784234,191.87050407984046,268.7383457709393,
Pz,95.81202481558482,161.1454781878041,65.0695498981473,39.843392335740134,106.72515628175303,
T8,261.87966896493305,97.9733954548865,736.4289541358597,300.24834588672195,304.04512004443137,
AF4,639.91017576151,449.39411178697,641.1071851437077,161.76431136030243,300.52302461478234,
AF3,117.0336586326636,191.50832822482369,368.00528873380364,187.48040261510846,291.4217650061882,
T7,283.15588764238623,288.39398470526527,225.2204698784234,191.87050407984046,268.7383457709393,
Pz,95.81202481558482,161.1454781878041,65.0695498981473,39.843392335740134,106.72515628175303,
T8,261.87966896493305,97.9733954548865,736.4289541358597,300.24834588672195,304.04512004443137,
AF4,639.91017576151,449.39411178697,641.1071851437077,161.76431136030243,300.52302461478234,
AF3,117.0336586326636,191.50832822482369,368.00528873380364,187.48040261510846,291.4217650061882,
T7,283.15588764238623,288.39398470526527,225.2204698784234,191.87050407984046,268.7383457709393,
Pz,95.81202481558482,161.1454781878041,65.0695498981473,39.843392335740134,106.72515628175303,
T8,261.87966896493305,97.9733954548865,736.4289541358597,300.24834588672195,304.04512004443137,
AF4,639.91017576151,449.39411178697,641.1071851437077,161.76431136030243,300.52302461478234,
AF3,117.0336586326636,191.50832822482369,368.00528873380364,187.48040261510846,291.4217650061882,
T7,283.15588764238623,288.39398470526527,225.2204698784234,191.87050407984046,268.7383457709393,
Pz,95.81202481558482,161.1454781878041,65.0695498981473,39.843392335740134,106.72515628175303,
T8,261.87966896493305,97.9733954548865,736.4289541358597,300.24834588672195,304.04512004443137,
AF4,639.91017576151,449.39411178697,641.1071851437077,161.76431136030243,300.52302461478234,
AF3,117.0336586326636,191.50832822482369,368.00528873380364,187.48040261510846,291.4217650061882,
T7,283.15588764238623,288.39398470526527,225.2204698784234,191.87050407984046,268.7383457709393,
Pz,95.81202481558482,161.1454781878041,65.0695498981473,39.843392335740134,106.72515628175303,
T8,261.87966896493305,97.9733954548865,736.4289541358597,300.24834588672195,304.04512004443137,
AF4,639.91017576151,449.39411178697,641.1071851437077,161.76431136030243,300.52302461478234,
AF3,117.0336586326636,191.50832822482369,368.00528873380364,187.48040261510846,291.4217650061882,
T7,283.15588764238623,288.39398470526527,225.2204698784234,191.87050407984046,268.7383457709393,
Pz,95.81202481558482,161.1454781878041,65.0695498981473,39.843392335740134,106.72515628175303,
T8,261.87966896493305,97.9733954548865,736.4289541358597,300.24834588672195,304.04512004443137,
AF4,639.91017576151,449.39411178697,641.1071851437077,161.76431136030243,300.52302461478234,
AF3,117.0336586326636,191.50832822482369,368.00528873380364,187.48040261510846,291.4217650061882,
T7,283.15588764238623,288.39398470526527,225.2204698784234,191.87050407984046,268.7383457709393,
Pz,95.81202481558482,161.1454781878041,65.0695498981473,39.843392335740134,106.72515628175303,
T8,261.87966896493305,97.9733954548865,736.4289541358597,300.24834588672195,304.04512004443137,
AF4,639.91017576151,449.39411178697,641.1071851437077,161.76431136030243,300.52302461478234,
AF3,117.0336586326636,191.50832822482369,368.00528873380364,187.48040261510846,291.4217650061882,
T7,283.15588764238623,288.39398470526527,225.2204698784234,191.87050407984046,268.7383457709393,
Pz,95.81202481558482,161.1454781878041,65.0695498981473,39.843392335740134,106.72515628175303,
T8,261.87966896493305,97.9733954548865,736.4289541358597,300.24834588672195,304.04512004443137,
AF4,639.91017576151,449.39411178697,641.1071851437077,161.76431136030243,300.52302461478234,
AF3,117.0336586326636,191.50832822482369,368.00528873380364,187.48040261510846,291.4217650061882,
T7,283.15588764238623,288.39398470526527,225.2204698784234,191.87050407984046,268.7383457709393,
Pz,95.81202481558482,161.1454781878041,65.0695498981473,39.843392335740134,106.72515628175303,
T8,261.87966896493305,97.9733954548865,736.4289541358597,300.24834588672195,304.04512004443137,
AF4,639.91017576151,449.39411178697,641.1071851437077,161.76431136030243,300.52302461478234,
AF3,117.0336586326636,191.50832822482369,368.00528873380364,187.48040261510846,291.4217650061882,
T7,283.15588764238623,288.39398470526527,225.2204698784234,191.87050407984046,268.7383457709393,
Pz,95.81202481558482,161.1454781878041,65.0695498981473,39.843392335740134,106.72515628175303,
T8,261.87966896493305,97.9733954548865,736.4289541358597,300.24834588672195,304.04512004443137,
AF4,639.91017576151,449.39411178697,641.1071851437077,161.76431136030243,300.52302461478234,
AF3,117.0336586326636,191.50832822482369,368.00528873380364,187.48040261510846,291.4217650061882,
T7,283.15588764238623,288.39398470526527,225.2204698784234,191.87050407984046,268.7383457709393,
Pz,95.81202481558482,161.1454781878041,65.0695498981473,39.843392335740134,106.72515628175303,
T8,261.87966896493305,97.9733954548865,736.4289541358597,300.24834588672195,304.04512004443137,
AF4,639.91017576151,449.39411178697,641.1071851437077,161.76431136030243,300.52302461478234,
AF3,117.0336586326636,191.50832822482369,368.00528873380364,187.48040261510846,291.4217650061882,
T7,283.15588764238623,288.39398470526527,225.2204698784234,191.87050407984046,268.7383457709393,
Pz,95.81202481558482,161.1454781878041,65.0695498981473,39.843392335740134,106.72515628175303,
T8,261.87966896493305,97.9733954548865,736.4289541358597,300.24834588672195,304.04512004443137,
AF4,639.91017576151,449.39411178697,641.1071851437077,161.76431136030243,300.52302461478234,
AF3,117.0336586326636,191.50832822482369,368.00528873380364,187.48040261510846,291.4217650061882,
T7,283.15588764238623,288.39398470526527,225.2204698784234,191.87050407984046,268.7383457709393,
Pz,95.81202481558482,161.1454781878041,65.0695498981473,39.843392335740134,106.72515628175303,
T8,261.87966896493305,97.9733954548865,736.4289541358597,300.24834588672195,304.04512004443137,
AF4,639.91017576151,449.39411178697,641.1071851437077,161.76431136030243,300.52302461478234,
AF3,117.0336586326636,191.50832822482369,368.00528873380364,187.48040261510846,291.4217650061882,
T7,283.15588764238623,288.39398470526527,225.2204698784234,191.87050407984046,268.7383457709393,
Pz,95.81202481558482,161.1454781878041,65.0695498981473,39.843392335740134,106.72515628175303,
T8,261.87966896493305,97.9733954548865,736.4289541358597,300.24834588672195,304.04512004443137,
AF4,639.91017576151,449.39411178697,641.1071851437077,161.76431136030243,300.52302461478234,
AF3,117.0336586326636,191.50832822482369,368.00528873380364,187.48040261510846,291.4217650061882,
T7,283.15588764238623,288.39398470526527,225.2204698784234,191.87050407984046,268.7383457709393,
Pz,95.81202481558482,161.1454781878041,65.0695498981473,39.843392335740134,106.72515628175303,
T8,261.87966896493305,97.9733954548865,736.4289541358597,300.24834588672195,304.04512004443137,
AF4,639.91017576151,449.39411178697,641.1071851437077,161.76431136030243,300.52302461478234,
AF3,117.0336586326636,191.50832822482369,368.00528873380364,187.48040261510846,291.4217650061882,
T7,283.15588764238623,288.39398470526527,225.2204698784234,191.87050407984046,268.7383457709393,
Pz,95.81202481558482,161.1454781878041,65.0695498981473,39.843392335740134,106.72515628175303,
T8,261.87966896493305,97.9733954548865,736.4289541358597,300.24834588672195,304.04512004443137,
AF4,639.91017576151,449.39411178697,641.1071851437077,161.76431136030243,300.52302461478234,
AF3,347.9664529450594,183.19924897948619,316.83490627519956,265.97338194901135,337.747405790047,
T7,332.47807645191995,231.20898005092306,433.04850270010525,389.7040777014505,383.56783652912105,
Pz,62.192685972700374,80.58684077069026,36.3216182324073,36.49674594907547,56.79137798424607,
T8,105.06314756609397,94.00760918699847,522.5767035505768,193.38230729565376,199.46288808812616,
AF4,398.4202434258493,224.2400022436217,291.90861266804234,180.90762381216152,218.84639056222443,
AF3,347.9664529450594,183.19924897948619,316.83490627519956,265.97338194901135,337.747405790047,
T7,332.47807645191995,231.20898005092306,433.04850270010525,389.7040777014505,383.56783652912105,
Pz,62.192685972700374,80.58684077069026,36.3216182324073,36.49674594907547,56.79137798424607,
T8,105.06314756609397,94.00760918699847,522.5767035505768,193.38230729565376,199.46288808812616,
AF4,398.4202434258493,224.2400022436217,291.90861266804234,180.90762381216152,218.84639056222443,
AF3,347.9664529450594,183.19924897948619,316.83490627519956,265.97338194901135,337.747405790047,
T7,332.47807645191995,231.20898005092306,433.04850270010525,389.7040777014505,383.56783652912105,
Pz,62.192685972700374,80.58684077069026,36.3216182324073,36.49674594907547,56.79137798424607,
T8,105.06314756609397,94.00760918699847,522.5767035505768,193.38230729565376,199.46288808812616,
AF4,398.4202434258493,224.2400022436217,291.90861266804234,180.90762381216152,218.84639056222443,
AF3,347.9664529450594,183.19924897948619,316.83490627519956,265.97338194901135,337.747405790047,
T7,332.47807645191995,231.20898005092306,433.04850270010525,389.7040777014505,383.56783652912105,
Pz,62.192685972700374,80.58684077069026,36.3216182324073,36.49674594907547,56.79137798424607,
T8,105.06314756609397,94.00760918699847,522.5767035505768,193.38230729565376,199.46288808812616,
AF4,398.4202434258493,224.2400022436217,291.90861266804234,180.90762381216152,218.84639056222443,
AF3,347.9664529450594,183.19924897948619,316.83490627519956,265.97338194901135,337.747405790047,
T7,332.47807645191995,231.20898005092306,433.04850270010525,389.7040777014505,383.56783652912105,
Pz,62.192685972700374,80.58684077069026,36.3216182324073,36.49674594907547,56.79137798424607,
T8,105.06314756609397,94.00760918699847,522.5767035505768,193.38230729565376,199.46288808812616,
AF4,398.4202434258493,224.2400022436217,291.90861266804234,180.90762381216152,218.84639056222443,
AF3,347.9664529450594,183.19924897948619,316.83490627519956,265.97338194901135,337.747405790047,
T7,332.47807645191995,231.20898005092306,433.04850270010525,389.7040777014505,383.56783652912105,
Pz,62.192685972700374,80.58684077069026,36.3216182324073,36.49674594907547,56.79137798424607,
T8,105.06314756609397,94.00760918699847,522.5767035505768,193.38230729565376,199.46288808812616,
AF4,398.4202434258493,224.2400022436217,291.90861266804234,180.90762381216152,218.84639056222443,
AF3,347.9664529450594,183.19924897948619,316.83490627519956,265.97338194901135,337.747405790047,
T7,332.47807645191995,231.20898005092306,433.04850270010525,389.7040777014505,383.56783652912105,
Pz,62.192685972700374,80.58684077069026,36.3216182324073,36.49674594907547,56.79137798424607,
T8,105.06314756609397,94.00760918699847,522.5767035505768,193.38230729565376,199.46288808812616,
AF4,398.4202434258493,224.2400022436217,291.90861266804234,180.90762381216152,218.84639056222443,
AF3,347.9664529450594,183.19924897948619,316.83490627519956,265.97338194901135,337.747405790047,
T7,332.47807645191995,231.20898005092306,433.04850270010525,389.7040777014505,383.56783652912105,
Pz,62.192685972700374,80.58684077069026,36.3216182324073,36.49674594907547,56.79137798424607,
T8,105.06314756609397,94.00760918699847,522.5767035505768,193.38230729565376,199.46288808812616,
AF4,398.4202434258493,224.2400022436217,291.90861266804234,180.90762381216152,218.84639056222443,
AF3,347.9664529450594,183.19924897948619,316.83490627519956,265.97338194901135,337.747405790047,
T7,332.47807645191995,231.20898005092306,433.04850270010525,389.7040777014505,383.56783652912105,
Pz,62.192685972700374,80.58684077069026,36.3216182324073,36.49674594907547,56.79137798424607,
T8,105.06314756609397,94.00760918699847,522.5767035505768,193.38230729565376,199.46288808812616,
AF4,398.4202434258493,224.2400022436217,291.90861266804234,180.90762381216152,218.84639056222443,
AF3,347.9664529450594,183.19924897948619,316.83490627519956,265.97338194901135,337.747405790047,
T7,332.47807645191995,231.20898005092306,433.04850270010525,389.7040777014505,383.56783652912105,
Pz,62.192685972700374,80.58684077069026,36.3216182324073,36.49674594907547,56.79137798424607,
T8,105.06314756609397,94.00760918699847,522.5767035505768,193.38230729565376,199.46288808812616,
AF4,398.4202434258493,224.2400022436217,291.90861266804234,180.90762381216152,218.84639056222443,
AF3,347.9664529450594,183.19924897948619,316.83490627519956,265.97338194901135,337.747405790047,
T7,332.47807645191995,231.20898005092306,433.04850270010525,389.7040777014505,383.56783652912105,
Pz,62.192685972700374,80.58684077069026,36.3216182324073,36.49674594907547,56.79137798424607,
T8,105.06314756609397,94.00760918699847,522.5767035505768,193.38230729565376,199.46288808812616,
AF4,398.4202434258493,224.2400022436217,291.90861266804234,180.90762381216152,218.84639056222443,
AF3,347.9664529450594,183.19924897948619,316.83490627519956,265.97338194901135,337.747405790047,
T7,332.47807645191995,231.20898005092306,433.04850270010525,389.7040777014505,383.56783652912105,
Pz,62.192685972700374,80.58684077069026,36.3216182324073,36.49674594907547,56.79137798424607,
T8,105.06314756609397,94.00760918699847,522.5767035505768,193.38230729565376,199.46288808812616,
AF4,398.4202434258493,224.2400022436217,291.90861266804234,180.90762381216152,218.84639056222443,
AF3,347.9664529450594,183.19924897948619,316.83490627519956,265.97338194901135,337.747405790047,
T7,332.47807645191995,231.20898005092306,433.04850270010525,389.7040777014505,383.56783652912105,
Pz,62.192685972700374,80.58684077069026,36.3216182324073,36.49674594907547,56.79137798424607,
T8,105.06314756609397,94.00760918699847,522.5767035505768,193.38230729565376,199.46288808812616,
AF4,398.4202434258493,224.2400022436217,291.90861266804234,180.90762381216152,218.84639056222443,
AF3,347.9664529450594,183.19924897948619,316.83490627519956,265.97338194901135,337.747405790047,
T7,332.47807645191995,231.20898005092306,433.04850270010525,389.7040777014505,383.56783652912105,
Pz,62.192685972700374,80.58684077069026,36.3216182324073,36.49674594907547,56.79137798424607,
T8,105.06314756609397,94.00760918699847,522.5767035505768,193.38230729565376,199.46288808812616,
AF4,398.4202434258493,224.2400022436217,291.90861266804234,180.90762381216152,218.84639056222443,
AF3,347.9664529450594,183.19924897948619,316.83490627519956,265.97338194901135,337.747405790047,
T7,332.47807645191995,231.20898005092306,433.04850270010525,389.7040777014505,383.56783652912105,
Pz,62.192685972700374,80.58684077069026,36.3216182324073,36.49674594907547,56.79137798424607,
T8,105.06314756609397,94.00760918699847,522.5767035505768,193.38230729565376,199.46288808812616,
AF4,398.4202434258493,224.2400022436217,291.90861266804234,180.90762381216152,218.84639056222443,
AF3,347.9664529450594,183.19924897948619,316.83490627519956,265.97338194901135,337.747405790047,
T7,332.47807645191995,231.20898005092306,433.04850270010525,389.7040777014505,383.56783652912105,
Pz,62.192685972700374,80.58684077069026,36.3216182324073,36.49674594907547,56.79137798424607,
T8,105.06314756609397,94.00760918699847,522.5767035505768,193.38230729565376,199.46288808812616,
AF4,398.4202434258493,224.2400022436217,291.90861266804234,180.90762381216152,218.84639056222443,
AF3,347.9664529450594,183.19924897948619,316.83490627519956,265.97338194901135,337.747405790047,
T7,332.47807645191995,231.20898005092306,433.04850270010525,389.7040777014505,383.56783652912105,
Pz,62.192685972700374,80.58684077069026,36.3216182324073,36.49674594907547,56.79137798424607,
T8,105.06314756609397,94.00760918699847,522.5767035505768,193.38230729565376,199.46288808812616,
AF4,398.4202434258493,224.2400022436217,291.90861266804234,180.90762381216152,218.84639056222443,
AF3,347.9664529450594,183.19924897948619,316.83490627519956,265.97338194901135,337.747405790047,
T7,332.47807645191995,231.20898005092306,433.04850270010525,389.7040777014505,383.56783652912105,
Pz,62.192685972700374,80.58684077069026,36.3216182324073,36.49674594907547,56.79137798424607,
T8,105.06314756609397,94.00760918699847,522.5767035505768,193.38230729565376,199.46288808812616,
AF4,398.4202434258493,224.2400022436217,291.90861266804234,180.90762381216152,218.84639056222443,
AF3,347.9664529450594,183.19924897948619,316.83490627519956,265.97338194901135,337.747405790047,
T7,332.47807645191995,231.20898005092306,433.04850270010525,389.7040777014505,383.56783652912105,
Pz,62.192685972700374,80.58684077069026,36.3216182324073,36.49674594907547,56.79137798424607,
T8,105.06314756609397,94.00760918699847,522.5767035505768,193.38230729565376,199.46288808812616,
AF4,398.4202434258493,224.2400022436217,291.90861266804234,180.90762381216152,218.84639056222443,
AF3,347.9664529450594,183.19924897948619,316.83490627519956,265.97338194901135,337.747405790047,
T7,332.47807645191995,231.20898005092306,433.04850270010525,389.7040777014505,383.56783652912105,
Pz,62.192685972700374,80.58684077069026,36.3216182324073,36.49674594907547,56.79137798424607,
T8,105.06314756609397,94.00760918699847,522.5767035505768,193.38230729565376,199.46288808812616,
AF4,398.4202434258493,224.2400022436217,291.90861266804234,180.90762381216152,218.84639056222443,
AF3,347.9664529450594,183.19924897948619,316.83490627519956,265.97338194901135,337.747405790047,
T7,332.47807645191995,231.20898005092306,433.04850270010525,389.7040777014505,383.56783652912105,
Pz,62.192685972700374,80.58684077069026,36.3216182324073,36.49674594907547,56.79137798424607,
T8,105.06314756609397,94.00760918699847,522.5767035505768,193.38230729565376,199.46288808812616,
