Channel , Theta ,Alpha ,Low beta ,High beta , Gamma 
AF3,432.45513870273317,325.6071170537559,319.1877180786475,229.33406464550157,378.3561629276616,
T7,240.3429381914201,408.48946002018573,487.2645238957153,257.9117535054135,299.71251052026616,
Pz,141.56911661358063,357.6110335494953,110.60464655096415,115.12056015988006,185.62864260109822,
T8,427.1645397736036,500.8555643084908,313.8885212787734,180.72697824046227,496.78981939549163,
AF4,249.00770950702477,130.14457741131184,245.62016495867954,287.85080524991025,395.90938241711564,
AF3,432.45513870273317,325.6071170537559,319.1877180786475,229.33406464550157,378.3561629276616,
T7,240.3429381914201,408.48946002018573,487.2645238957153,257.9117535054135,299.71251052026616,
Pz,141.56911661358063,357.6110335494953,110.60464655096415,115.12056015988006,185.62864260109822,
T8,427.1645397736036,500.8555643084908,313.8885212787734,180.72697824046227,496.78981939549163,
AF4,249.00770950702477,130.14457741131184,245.62016495867954,287.85080524991025,395.90938241711564,
AF3,432.45513870273317,325.6071170537559,319.1877180786475,229.33406464550157,378.3561629276616,
T7,240.3429381914201,408.48946002018573,487.2645238957153,257.9117535054135,299.71251052026616,
Pz,141.56911661358063,357.6110335494953,110.60464655096415,115.12056015988006,185.62864260109822,
T8,427.1645397736036,500.8555643084908,313.8885212787734,180.72697824046227,496.78981939549163,
AF4,249.00770950702477,130.14457741131184,245.62016495867954,287.85080524991025,395.90938241711564,
AF3,432.45513870273317,325.6071170537559,319.1877180786475,229.33406464550157,378.3561629276616,
T7,240.3429381914201,408.48946002018573,487.2645238957153,257.9117535054135,299.71251052026616,
Pz,141.56911661358063,357.6110335494953,110.60464655096415,115.12056015988006,185.62864260109822,
T8,427.1645397736036,500.8555643084908,313.8885212787734,180.72697824046227,496.78981939549163,
AF4,249.00770950702477,130.14457741131184,245.62016495867954,287.85080524991025,395.90938241711564,
AF3,432.45513870273317,325.6071170537559,319.1877180786475,229.33406464550157,378.3561629276616,
T7,240.3429381914201,408.48946002018573,487.2645238957153,257.9117535054135,299.71251052026616,
Pz,141.56911661358063,357.6110335494953,110.60464655096415,115.12056015988006,185.62864260109822,
T8,427.1645397736036,500.8555643084908,313.8885212787734,180.72697824046227,496.78981939549163,
AF4,249.00770950702477,130.14457741131184,245.62016495867954,287.85080524991025,395.90938241711564,
AF3,432.45513870273317,325.6071170537559,319.1877180786475,229.33406464550157,378.3561629276616,
T7,240.3429381914201,408.48946002018573,487.2645238957153,257.9117535054135,299.71251052026616,
Pz,141.56911661358063,357.6110335494953,110.60464655096415,115.12056015988006,185.62864260109822,
T8,427.1645397736036,500.8555643084908,313.8885212787734,180.72697824046227,496.78981939549163,
AF4,249.00770950702477,130.14457741131184,245.62016495867954,287.85080524991025,395.90938241711564,
AF3,432.45513870273317,325.6071170537559,319.1877180786475,229.33406464550157,378.3561629276616,
T7,240.3429381914201,408.48946002018573,487.2645238957153,257.9117535054135,299.71251052026616,
Pz,141.56911661358063,357.6110335494953,110.60464655096415,115.12056015988006,185.62864260109822,
T8,427.1645397736036,500.8555643084908,313.8885212787734,180.72697824046227,496.78981939549163,
AF4,249.00770950702477,130.14457741131184,245.62016495867954,287.85080524991025,395.90938241711564,
AF3,432.45513870273317,325.6071170537559,319.1877180786475,229.33406464550157,378.3561629276616,
T7,240.3429381914201,408.48946002018573,487.2645238957153,257.9117535054135,299.71251052026616,
Pz,141.56911661358063,357.6110335494953,110.60464655096415,115.12056015988006,185.62864260109822,
T8,427.1645397736036,500.8555643084908,313.8885212787734,180.72697824046227,496.78981939549163,
AF4,249.00770950702477,130.14457741131184,245.62016495867954,287.85080524991025,395.90938241711564,
AF3,432.45513870273317,325.6071170537559,319.1877180786475,229.33406464550157,378.3561629276616,
T7,240.3429381914201,408.48946002018573,487.2645238957153,257.9117535054135,299.71251052026616,
Pz,141.56911661358063,357.6110335494953,110.60464655096415,115.12056015988006,185.62864260109822,
T8,427.1645397736036,500.8555643084908,313.8885212787734,180.72697824046227,496.78981939549163,
AF4,249.00770950702477,130.14457741131184,245.62016495867954,287.85080524991025,395.90938241711564,
AF3,432.45513870273317,325.6071170537559,319.1877180786475,229.33406464550157,378.3561629276616,
T7,240.3429381914201,408.48946002018573,487.2645238957153,257.9117535054135,299.71251052026616,
Pz,141.56911661358063,357.6110335494953,110.60464655096415,115.12056015988006,185.62864260109822,
T8,427.1645397736036,500.8555643084908,313.8885212787734,180.72697824046227,496.78981939549163,
AF4,249.00770950702477,130.14457741131184,245.62016495867954,287.85080524991025,395.90938241711564,
AF3,432.45513870273317,325.6071170537559,319.1877180786475,229.33406464550157,378.3561629276616,
T7,240.3429381914201,408.48946002018573,487.2645238957153,257.9117535054135,299.71251052026616,
Pz,141.56911661358063,357.6110335494953,110.60464655096415,115.12056015988006,185.62864260109822,
T8,427.1645397736036,500.8555643084908,313.8885212787734,180.72697824046227,496.78981939549163,
AF4,249.00770950702477,130.14457741131184,245.62016495867954,287.85080524991025,395.90938241711564,
AF3,432.45513870273317,325.6071170537559,319.1877180786475,229.33406464550157,378.3561629276616,
T7,240.3429381914201,408.48946002018573,487.2645238957153,257.9117535054135,299.71251052026616,
Pz,141.56911661358063,357.6110335494953,110.60464655096415,115.12056015988006,185.62864260109822,
T8,427.1645397736036,500.8555643084908,313.8885212787734,180.72697824046227,496.78981939549163,
AF4,249.00770950702477,130.14457741131184,245.62016495867954,287.85080524991025,395.90938241711564,
AF3,432.45513870273317,325.6071170537559,319.1877180786475,229.33406464550157,378.3561629276616,
T7,240.3429381914201,408.48946002018573,487.2645238957153,257.9117535054135,299.71251052026616,
Pz,141.56911661358063,357.6110335494953,110.60464655096415,115.12056015988006,185.62864260109822,
T8,427.1645397736036,500.8555643084908,313.8885212787734,180.72697824046227,496.78981939549163,
AF4,249.00770950702477,130.14457741131184,245.62016495867954,287.85080524991025,395.90938241711564,
AF3,432.45513870273317,325.6071170537559,319.1877180786475,229.33406464550157,378.3561629276616,
T7,240.3429381914201,408.48946002018573,487.2645238957153,257.9117535054135,299.71251052026616,
Pz,141.56911661358063,357.6110335494953,110.60464655096415,115.12056015988006,185.62864260109822,
T8,427.1645397736036,500.8555643084908,313.8885212787734,180.72697824046227,496.78981939549163,
AF4,249.00770950702477,130.14457741131184,245.62016495867954,287.85080524991025,395.90938241711564,
AF3,432.45513870273317,325.6071170537559,319.1877180786475,229.33406464550157,378.3561629276616,
T7,240.3429381914201,408.48946002018573,487.2645238957153,257.9117535054135,299.71251052026616,
Pz,141.56911661358063,357.6110335494953,110.60464655096415,115.12056015988006,185.62864260109822,
T8,427.1645397736036,500.8555643084908,313.8885212787734,180.72697824046227,496.78981939549163,
AF4,249.00770950702477,130.14457741131184,245.62016495867954,287.85080524991025,395.90938241711564,
AF3,432.45513870273317,325.6071170537559,319.1877180786475,229.33406464550157,378.3561629276616,
T7,240.3429381914201,408.48946002018573,487.2645238957153,257.9117535054135,299.71251052026616,
Pz,141.56911661358063,357.6110335494953,110.60464655096415,115.12056015988006,185.62864260109822,
T8,427.1645397736036,500.8555643084908,313.8885212787734,180.72697824046227,496.78981939549163,
AF4,249.00770950702477,130.14457741131184,245.62016495867954,287.85080524991025,395.90938241711564,
AF3,432.45513870273317,325.6071170537559,319.1877180786475,229.33406464550157,378.3561629276616,
T7,240.3429381914201,408.48946002018573,487.2645238957153,257.9117535054135,299.71251052026616,
Pz,141.56911661358063,357.6110335494953,110.60464655096415,115.12056015988006,185.62864260109822,
T8,427.1645397736036,500.8555643084908,313.8885212787734,180.72697824046227,496.78981939549163,
AF4,249.00770950702477,130.14457741131184,245.62016495867954,287.85080524991025,395.90938241711564,
AF3,432.45513870273317,325.6071170537559,319.1877180786475,229.33406464550157,378.3561629276616,
T7,240.3429381914201,408.48946002018573,487.2645238957153,257.9117535054135,299.71251052026616,
Pz,141.56911661358063,357.6110335494953,110.60464655096415,115.12056015988006,185.62864260109822,
T8,427.1645397736036,500.8555643084908,313.8885212787734,180.72697824046227,496.78981939549163,
AF4,249.00770950702477,130.14457741131184,245.62016495867954,287.85080524991025,395.90938241711564,
AF3,432.45513870273317,325.6071170537559,319.1877180786475,229.33406464550157,378.3561629276616,
T7,240.3429381914201,408.48946002018573,487.2645238957153,257.9117535054135,299.71251052026616,
Pz,141.56911661358063,357.6110335494953,110.60464655096415,115.12056015988006,185.62864260109822,
T8,427.1645397736036,500.8555643084908,313.8885212787734,180.72697824046227,496.78981939549163,
AF4,249.00770950702477,130.14457741131184,245.62016495867954,287.85080524991025,395.90938241711564,
AF3,432.45513870273317,325.6071170537559,319.1877180786475,229.33406464550157,378.3561629276616,
T7,240.3429381914201,408.48946002018573,487.2645238957153,257.9117535054135,299.71251052026616,
Pz,141.56911661358063,357.6110335494953,110.60464655096415,115.12056015988006,185.62864260109822,
T8,427.1645397736036,500.8555643084908,313.8885212787734,180.72697824046227,496.78981939549163,
AF4,249.00770950702477,130.14457741131184,245.62016495867954,287.85080524991025,395.90938241711564,
AF3,432.45513870273317,325.6071170537559,319.1877180786475,229.33406464550157,378.3561629276616,
T7,240.3429381914201,408.48946002018573,487.2645238957153,257.9117535054135,299.71251052026616,
Pz,141.56911661358063,357.6110335494953,110.60464655096415,115.12056015988006,185.62864260109822,
T8,427.1645397736036,500.8555643084908,313.8885212787734,180.72697824046227,496.78981939549163,
AF4,249.00770950702477,130.14457741131184,245.62016495867954,287.85080524991025,395.90938241711564,
AF3,432.45513870273317,325.6071170537559,319.1877180786475,229.33406464550157,378.3561629276616,
T7,240.3429381914201,408.48946002018573,487.2645238957153,257.9117535054135,299.71251052026616,
Pz,141.56911661358063,357.6110335494953,110.60464655096415,115.12056015988006,185.62864260109822,
T8,427.1645397736036,500.8555643084908,313.8885212787734,180.72697824046227,496.78981939549163,
AF4,249.00770950702477,130.14457741131184,245.62016495867954,287.85080524991025,395.90938241711564,
AF3,432.45513870273317,325.6071170537559,319.1877180786475,229.33406464550157,378.3561629276616,
T7,240.3429381914201,408.48946002018573,487.2645238957153,257.9117535054135,299.71251052026616,
Pz,141.56911661358063,357.6110335494953,110.60464655096415,115.12056015988006,185.62864260109822,
T8,427.1645397736036,500.8555643084908,313.8885212787734,180.72697824046227,496.78981939549163,
AF4,249.00770950702477,130.14457741131184,245.62016495867954,287.85080524991025,395.90938241711564,
AF3,432.45513870273317,325.6071170537559,319.1877180786475,229.33406464550157,378.3561629276616,
T7,240.3429381914201,408.48946002018573,487.2645238957153,257.9117535054135,299.71251052026616,
Pz,141.56911661358063,357.6110335494953,110.60464655096415,115.12056015988006,185.62864260109822,
T8,427.1645397736036,500.8555643084908,313.8885212787734,180.72697824046227,496.78981939549163,
AF4,249.00770950702477,130.14457741131184,245.62016495867954,287.85080524991025,395.90938241711564,
AF3,432.45513870273317,325.6071170537559,319.1877180786475,229.33406464550157,378.3561629276616,
T7,240.3429381914201,408.48946002018573,487.2645238957153,257.9117535054135,299.71251052026616,
Pz,141.56911661358063,357.6110335494953,110.60464655096415,115.12056015988006,185.62864260109822,
T8,427.1645397736036,500.8555643084908,313.8885212787734,180.72697824046227,496.78981939549163,
AF4,249.00770950702477,130.14457741131184,245.62016495867954,287.85080524991025,395.90938241711564,
AF3,432.45513870273317,325.6071170537559,319.1877180786475,229.33406464550157,378.3561629276616,
T7,240.3429381914201,408.48946002018573,487.2645238957153,257.9117535054135,299.71251052026616,
Pz,141.56911661358063,357.6110335494953,110.60464655096415,115.12056015988006,185.62864260109822,
T8,427.1645397736036,500.8555643084908,313.8885212787734,180.72697824046227,496.78981939549163,
AF4,249.00770950702477,130.14457741131184,245.62016495867954,287.85080524991025,395.90938241711564,
AF3,432.45513870273317,325.6071170537559,319.1877180786475,229.33406464550157,378.3561629276616,
T7,240.3429381914201,408.48946002018573,487.2645238957153,257.9117535054135,299.71251052026616,
Pz,141.56911661358063,357.6110335494953,110.60464655096415,115.12056015988006,185.62864260109822,
T8,427.1645397736036,500.8555643084908,313.8885212787734,180.72697824046227,496.78981939549163,
AF4,249.00770950702477,130.14457741131184,245.62016495867954,287.85080524991025,395.90938241711564,
AF3,432.45513870273317,325.6071170537559,319.1877180786475,229.33406464550157,378.3561629276616,
T7,240.3429381914201,408.48946002018573,487.2645238957153,257.9117535054135,299.71251052026616,
Pz,141.56911661358063,357.6110335494953,110.60464655096415,115.12056015988006,185.62864260109822,
T8,427.1645397736036,500.8555643084908,313.8885212787734,180.72697824046227,496.78981939549163,
AF4,249.00770950702477,130.14457741131184,245.62016495867954,287.85080524991025,395.90938241711564,
AF3,432.45513870273317,325.6071170537559,319.1877180786475,229.33406464550157,378.3561629276616,
T7,240.3429381914201,408.48946002018573,487.2645238957153,257.9117535054135,299.71251052026616,
Pz,141.56911661358063,357.6110335494953,110.60464655096415,115.12056015988006,185.62864260109822,
T8,427.1645397736036,500.8555643084908,313.8885212787734,180.72697824046227,496.78981939549163,
AF4,249.00770950702477,130.14457741131184,245.62016495867954,287.85080524991025,395.90938241711564,
AF3,432.45513870273317,325.6071170537559,319.1877180786475,229.33406464550157,378.3561629276616,
T7,240.3429381914201,408.48946002018573,487.2645238957153,257.9117535054135,299.71251052026616,
Pz,141.56911661358063,357.6110335494953,110.60464655096415,115.12056015988006,185.62864260109822,
T8,427.1645397736036,500.8555643084908,313.8885212787734,180.72697824046227,496.78981939549163,
AF4,249.00770950702477,130.14457741131184,245.62016495867954,287.85080524991025,395.90938241711564,
AF3,432.45513870273317,325.6071170537559,319.1877180786475,229.33406464550157,378.3561629276616,
T7,240.3429381914201,408.48946002018573,487.2645238957153,257.9117535054135,299.71251052026616,
Pz,141.56911661358063,357.6110335494953,110.60464655096415,115.12056015988006,185.62864260109822,
T8,427.1645397736036,500.8555643084908,313.8885212787734,180.72697824046227,496.78981939549163,
AF4,249.00770950702477,130.14457741131184,245.62016495867954,287.85080524991025,395.90938241711564,
AF3,432.45513870273317,325.6071170537559,319.1877180786475,229.33406464550157,378.3561629276616,
T7,288.1078564171119,757.3660538650446,659.3687300265728,235.83811341836267,215.54466487111782,
Pz,73.52815244808227,238.2169254168455,224.93501980496893,126.88881613654341,95.09799872673523,
T8,183.92064227713524,400.29305484928943,527.7293004984365,238.3769971898006,231.8000492455281,
AF4,238.9691937224403,340.28971696708373,478.4108978255676,143.3072748297997,239.07407011259917,
AF3,713.9741287017569,557.2663870389193,300.53243177344325,204.19148328820347,290.86328794340596,
T7,288.1078564171119,757.3660538650446,659.3687300265728,235.83811341836267,215.54466487111782,
Pz,73.52815244808227,238.2169254168455,224.93501980496893,126.88881613654341,95.09799872673523,
T8,183.92064227713524,400.29305484928943,527.7293004984365,238.3769971898006,231.8000492455281,
AF4,238.9691937224403,340.28971696708373,478.4108978255676,143.3072748297997,239.07407011259917,
AF3,713.9741287017569,557.2663870389193,300.53243177344325,204.19148328820347,290.86328794340596,
T7,288.1078564171119,757.3660538650446,659.3687300265728,235.83811341836267,215.54466487111782,
Pz,73.52815244808227,238.2169254168455,224.93501980496893,126.88881613654341,95.09799872673523,
T8,183.92064227713524,400.29305484928943,527.7293004984365,238.3769971898006,231.8000492455281,
AF4,238.9691937224403,340.28971696708373,478.4108978255676,143.3072748297997,239.07407011259917,
AF3,713.9741287017569,557.2663870389193,300.53243177344325,204.19148328820347,290.86328794340596,
T7,288.1078564171119,757.3660538650446,659.3687300265728,235.83811341836267,215.54466487111782,
Pz,73.52815244808227,238.2169254168455,224.93501980496893,126.88881613654341,95.09799872673523,
T8,183.92064227713524,400.29305484928943,527.7293004984365,238.3769971898006,231.8000492455281,
AF4,238.9691937224403,340.28971696708373,478.4108978255676,143.3072748297997,239.07407011259917,
AF3,713.9741287017569,557.2663870389193,300.53243177344325,204.19148328820347,290.86328794340596,
T7,288.1078564171119,757.3660538650446,659.3687300265728,235.83811341836267,215.54466487111782,
Pz,73.52815244808227,238.2169254168455,224.93501980496893,126.88881613654341,95.09799872673523,
T8,183.92064227713524,400.29305484928943,527.7293004984365,238.3769971898006,231.8000492455281,
AF4,238.9691937224403,340.28971696708373,478.4108978255676,143.3072748297997,239.07407011259917,
AF3,713.9741287017569,557.2663870389193,300.53243177344325,204.19148328820347,290.86328794340596,
T7,288.1078564171119,757.3660538650446,659.3687300265728,235.83811341836267,215.54466487111782,
Pz,73.52815244808227,238.2169254168455,224.93501980496893,126.88881613654341,95.09799872673523,
T8,183.92064227713524,400.29305484928943,527.7293004984365,238.3769971898006,231.8000492455281,
AF4,238.9691937224403,340.28971696708373,478.4108978255676,143.3072748297997,239.07407011259917,
AF3,713.9741287017569,557.2663870389193,300.53243177344325,204.19148328820347,290.86328794340596,
T7,288.1078564171119,757.3660538650446,659.3687300265728,235.83811341836267,215.54466487111782,
Pz,73.52815244808227,238.2169254168455,224.93501980496893,126.88881613654341,95.09799872673523,
T8,183.92064227713524,400.29305484928943,527.7293004984365,238.3769971898006,231.8000492455281,
AF4,238.9691937224403,340.28971696708373,478.4108978255676,143.3072748297997,239.07407011259917,
AF3,713.9741287017569,557.2663870389193,300.53243177344325,204.19148328820347,290.86328794340596,
T7,288.1078564171119,757.3660538650446,659.3687300265728,235.83811341836267,215.54466487111782,
Pz,73.52815244808227,238.2169254168455,224.93501980496893,126.88881613654341,95.09799872673523,
T8,183.92064227713524,400.29305484928943,527.7293004984365,238.3769971898006,231.8000492455281,
AF4,238.9691937224403,340.28971696708373,478.4108978255676,143.3072748297997,239.07407011259917,
AF3,713.9741287017569,557.2663870389193,300.53243177344325,204.19148328820347,290.86328794340596,
T7,288.1078564171119,757.3660538650446,659.3687300265728,235.83811341836267,215.54466487111782,
Pz,73.52815244808227,238.2169254168455,224.93501980496893,126.88881613654341,95.09799872673523,
T8,183.92064227713524,400.29305484928943,527.7293004984365,238.3769971898006,231.8000492455281,
AF4,238.9691937224403,340.28971696708373,478.4108978255676,143.3072748297997,239.07407011259917,
AF3,713.9741287017569,557.2663870389193,300.53243177344325,204.19148328820347,290.86328794340596,
T7,288.1078564171119,757.3660538650446,659.3687300265728,235.83811341836267,215.54466487111782,
Pz,73.52815244808227,238.2169254168455,224.93501980496893,126.88881613654341,95.09799872673523,
T8,183.92064227713524,400.29305484928943,527.7293004984365,238.3769971898006,231.8000492455281,
AF4,238.9691937224403,340.28971696708373,478.4108978255676,143.3072748297997,239.07407011259917,
AF3,713.9741287017569,557.2663870389193,300.53243177344325,204.19148328820347,290.86328794340596,
T7,288.1078564171119,757.3660538650446,659.3687300265728,235.83811341836267,215.54466487111782,
Pz,73.52815244808227,238.2169254168455,224.93501980496893,126.88881613654341,95.09799872673523,
T8,183.92064227713524,400.29305484928943,527.7293004984365,238.3769971898006,231.8000492455281,
AF4,238.9691937224403,340.28971696708373,478.4108978255676,143.3072748297997,239.07407011259917,
AF3,713.9741287017569,557.2663870389193,300.53243177344325,204.19148328820347,290.86328794340596,
T7,288.1078564171119,757.3660538650446,659.3687300265728,235.83811341836267,215.54466487111782,
Pz,73.52815244808227,238.2169254168455,224.93501980496893,126.88881613654341,95.09799872673523,
T8,183.92064227713524,400.29305484928943,527.7293004984365,238.3769971898006,231.8000492455281,
AF4,238.9691937224403,340.28971696708373,478.4108978255676,143.3072748297997,239.07407011259917,
AF3,713.9741287017569,557.2663870389193,300.53243177344325,204.19148328820347,290.86328794340596,
T7,288.1078564171119,757.3660538650446,659.3687300265728,235.83811341836267,215.54466487111782,
Pz,73.52815244808227,238.2169254168455,224.93501980496893,126.88881613654341,95.09799872673523,
T8,183.92064227713524,400.29305484928943,527.7293004984365,238.3769971898006,231.8000492455281,
AF4,238.9691937224403,340.28971696708373,478.4108978255676,143.3072748297997,239.07407011259917,
AF3,713.9741287017569,557.2663870389193,300.53243177344325,204.19148328820347,290.86328794340596,
T7,288.1078564171119,757.3660538650446,659.3687300265728,235.83811341836267,215.54466487111782,
Pz,73.52815244808227,238.2169254168455,224.93501980496893,126.88881613654341,95.09799872673523,
T8,183.92064227713524,400.29305484928943,527.7293004984365,238.3769971898006,231.8000492455281,
AF4,238.9691937224403,340.28971696708373,478.4108978255676,143.3072748297997,239.07407011259917,
AF3,713.9741287017569,557.2663870389193,300.53243177344325,204.19148328820347,290.86328794340596,
T7,288.1078564171119,757.3660538650446,659.3687300265728,235.83811341836267,215.54466487111782,
Pz,73.52815244808227,238.2169254168455,224.93501980496893,126.88881613654341,95.09799872673523,
T8,183.92064227713524,400.29305484928943,527.7293004984365,238.3769971898006,231.8000492455281,
AF4,238.9691937224403,340.28971696708373,478.4108978255676,143.3072748297997,239.07407011259917,
AF3,713.9741287017569,557.2663870389193,300.53243177344325,204.19148328820347,290.86328794340596,
T7,288.1078564171119,757.3660538650446,659.3687300265728,235.83811341836267,215.54466487111782,
Pz,73.52815244808227,238.2169254168455,224.93501980496893,126.88881613654341,95.09799872673523,
T8,183.92064227713524,400.29305484928943,527.7293004984365,238.3769971898006,231.8000492455281,
AF4,238.9691937224403,340.28971696708373,478.4108978255676,143.3072748297997,239.07407011259917,
AF3,713.9741287017569,557.2663870389193,300.53243177344325,204.19148328820347,290.86328794340596,
T7,288.1078564171119,757.3660538650446,659.3687300265728,235.83811341836267,215.54466487111782,
Pz,73.52815244808227,238.2169254168455,224.93501980496893,126.88881613654341,95.09799872673523,
T8,183.92064227713524,400.29305484928943,527.7293004984365,238.3769971898006,231.8000492455281,
AF4,238.9691937224403,340.28971696708373,478.4108978255676,143.3072748297997,239.07407011259917,
AF3,713.9741287017569,557.2663870389193,300.53243177344325,204.19148328820347,290.86328794340596,
T7,288.1078564171119,757.3660538650446,659.3687300265728,235.83811341836267,215.54466487111782,
Pz,73.52815244808227,238.2169254168455,224.93501980496893,126.88881613654341,95.09799872673523,
T8,183.92064227713524,400.29305484928943,527.7293004984365,238.3769971898006,231.8000492455281,
AF4,238.9691937224403,340.28971696708373,478.4108978255676,143.3072748297997,239.07407011259917,
AF3,713.9741287017569,557.2663870389193,300.53243177344325,204.19148328820347,290.86328794340596,
T7,288.1078564171119,757.3660538650446,659.3687300265728,235.83811341836267,215.54466487111782,
Pz,73.52815244808227,238.2169254168455,224.93501980496893,126.88881613654341,95.09799872673523,
T8,183.92064227713524,400.29305484928943,527.7293004984365,238.3769971898006,231.8000492455281,
AF4,238.9691937224403,340.28971696708373,478.4108978255676,143.3072748297997,239.07407011259917,
AF3,713.9741287017569,557.2663870389193,300.53243177344325,204.19148328820347,290.86328794340596,
T7,288.1078564171119,757.3660538650446,659.3687300265728,235.83811341836267,215.54466487111782,
Pz,73.52815244808227,238.2169254168455,224.93501980496893,126.88881613654341,95.09799872673523,
T8,183.92064227713524,400.29305484928943,527.7293004984365,238.3769971898006,231.8000492455281,
AF4,238.9691937224403,340.28971696708373,478.4108978255676,143.3072748297997,239.07407011259917,
AF3,713.9741287017569,557.2663870389193,300.53243177344325,204.19148328820347,290.86328794340596,
T7,288.1078564171119,757.3660538650446,659.3687300265728,235.83811341836267,215.54466487111782,
Pz,73.52815244808227,238.2169254168455,224.93501980496893,126.88881613654341,95.09799872673523,
T8,183.92064227713524,400.29305484928943,527.7293004984365,238.3769971898006,231.8000492455281,
AF4,238.9691937224403,340.28971696708373,478.4108978255676,143.3072748297997,239.07407011259917,
AF3,713.9741287017569,557.2663870389193,300.53243177344325,204.19148328820347,290.86328794340596,
T7,288.1078564171119,757.3660538650446,659.3687300265728,235.83811341836267,215.54466487111782,
Pz,73.52815244808227,238.2169254168455,224.93501980496893,126.88881613654341,95.09799872673523,
T8,183.92064227713524,400.29305484928943,527.7293004984365,238.3769971898006,231.8000492455281,
AF4,238.9691937224403,340.28971696708373,478.4108978255676,143.3072748297997,239.07407011259917,
AF3,713.9741287017569,557.2663870389193,300.53243177344325,204.19148328820347,290.86328794340596,
T7,288.1078564171119,757.3660538650446,659.3687300265728,235.83811341836267,215.54466487111782,
Pz,73.52815244808227,238.2169254168455,224.93501980496893,126.88881613654341,95.09799872673523,
T8,183.92064227713524,400.29305484928943,527.7293004984365,238.3769971898006,231.8000492455281,
AF4,238.9691937224403,340.28971696708373,478.4108978255676,143.3072748297997,239.07407011259917,
AF3,713.9741287017569,557.2663870389193,300.53243177344325,204.19148328820347,290.86328794340596,
T7,288.1078564171119,757.3660538650446,659.3687300265728,235.83811341836267,215.54466487111782,
Pz,73.52815244808227,238.2169254168455,224.93501980496893,126.88881613654341,95.09799872673523,
T8,183.92064227713524,400.29305484928943,527.7293004984365,238.3769971898006,231.8000492455281,
AF4,238.9691937224403,340.28971696708373,478.4108978255676,143.3072748297997,239.07407011259917,
AF3,713.9741287017569,557.2663870389193,300.53243177344325,204.19148328820347,290.86328794340596,
T7,288.1078564171119,757.3660538650446,659.3687300265728,235.83811341836267,215.54466487111782,
Pz,73.52815244808227,238.2169254168455,224.93501980496893,126.88881613654341,95.09799872673523,
T8,183.92064227713524,400.29305484928943,527.7293004984365,238.3769971898006,231.8000492455281,
AF4,238.9691937224403,340.28971696708373,478.4108978255676,143.3072748297997,239.07407011259917,
AF3,713.9741287017569,557.2663870389193,300.53243177344325,204.19148328820347,290.86328794340596,
T7,288.1078564171119,757.3660538650446,659.3687300265728,235.83811341836267,215.54466487111782,
Pz,73.52815244808227,238.2169254168455,224.93501980496893,126.88881613654341,95.09799872673523,
T8,183.92064227713524,400.29305484928943,527.7293004984365,238.3769971898006,231.8000492455281,
AF4,238.9691937224403,340.28971696708373,478.4108978255676,143.3072748297997,239.07407011259917,
AF3,713.9741287017569,557.2663870389193,300.53243177344325,204.19148328820347,290.86328794340596,
T7,288.1078564171119,757.3660538650446,659.3687300265728,235.83811341836267,215.54466487111782,
Pz,73.52815244808227,238.2169254168455,224.93501980496893,126.88881613654341,95.09799872673523,
T8,183.92064227713524,400.29305484928943,527.7293004984365,238.3769971898006,231.8000492455281,
AF4,238.9691937224403,340.28971696708373,478.4108978255676,143.3072748297997,239.07407011259917,
AF3,713.9741287017569,557.2663870389193,300.53243177344325,204.19148328820347,290.86328794340596,
T7,288.1078564171119,757.3660538650446,659.3687300265728,235.83811341836267,215.54466487111782,
Pz,73.52815244808227,238.2169254168455,224.93501980496893,126.88881613654341,95.09799872673523,
T8,183.92064227713524,400.29305484928943,527.7293004984365,238.3769971898006,231.8000492455281,
AF4,238.9691937224403,340.28971696708373,478.4108978255676,143.3072748297997,239.07407011259917,
AF3,713.9741287017569,557.2663870389193,300.53243177344325,204.19148328820347,290.86328794340596,
T7,288.1078564171119,757.3660538650446,659.3687300265728,235.83811341836267,215.54466487111782,
Pz,73.52815244808227,238.2169254168455,224.93501980496893,126.88881613654341,95.09799872673523,
T8,183.92064227713524,400.29305484928943,527.7293004984365,238.3769971898006,231.8000492455281,
AF4,238.9691937224403,340.28971696708373,478.4108978255676,143.3072748297997,239.07407011259917,
AF3,713.9741287017569,557.2663870389193,300.53243177344325,204.19148328820347,290.86328794340596,
T7,288.1078564171119,757.3660538650446,659.3687300265728,235.83811341836267,215.54466487111782,
Pz,73.52815244808227,238.2169254168455,224.93501980496893,126.88881613654341,95.09799872673523,
T8,183.92064227713524,400.29305484928943,527.7293004984365,238.3769971898006,231.8000492455281,
AF4,238.9691937224403,340.28971696708373,478.4108978255676,143.3072748297997,239.07407011259917,
AF3,713.9741287017569,557.2663870389193,300.53243177344325,204.19148328820347,290.86328794340596,
T7,288.1078564171119,757.3660538650446,659.3687300265728,235.83811341836267,215.54466487111782,
Pz,73.52815244808227,238.2169254168455,224.93501980496893,126.88881613654341,95.09799872673523,
T8,183.92064227713524,400.29305484928943,527.7293004984365,238.3769971898006,231.8000492455281,
AF4,238.9691937224403,340.28971696708373,478.4108978255676,143.3072748297997,239.07407011259917,
AF3,713.9741287017569,557.2663870389193,300.53243177344325,204.19148328820347,290.86328794340596,
T7,288.1078564171119,757.3660538650446,659.3687300265728,235.83811341836267,215.54466487111782,
Pz,73.52815244808227,238.2169254168455,224.93501980496893,126.88881613654341,95.09799872673523,
T8,183.92064227713524,400.29305484928943,527.7293004984365,238.3769971898006,231.8000492455281,
AF4,238.9691937224403,340.28971696708373,478.4108978255676,143.3072748297997,239.07407011259917,
AF3,713.9741287017569,557.2663870389193,300.53243177344325,204.19148328820347,290.86328794340596,
T7,288.1078564171119,757.3660538650446,659.3687300265728,235.83811341836267,215.54466487111782,
Pz,73.52815244808227,238.2169254168455,224.93501980496893,126.88881613654341,95.09799872673523,
T8,183.92064227713524,400.29305484928943,527.7293004984365,238.3769971898006,231.8000492455281,
AF4,238.9691937224403,340.28971696708373,478.4108978255676,143.3072748297997,239.07407011259917,
AF3,713.9741287017569,557.2663870389193,300.53243177344325,204.19148328820347,290.86328794340596,
T7,288.1078564171119,757.3660538650446,659.3687300265728,235.83811341836267,215.54466487111782,
Pz,73.52815244808227,238.2169254168455,224.93501980496893,126.88881613654341,95.09799872673523,
T8,183.92064227713524,400.29305484928943,527.7293004984365,238.3769971898006,231.8000492455281,
AF4,238.9691937224403,340.28971696708373,478.4108978255676,143.3072748297997,239.07407011259917,
AF3,713.9741287017569,557.2663870389193,300.53243177344325,204.19148328820347,290.86328794340596,
T7,288.1078564171119,757.3660538650446,659.3687300265728,235.83811341836267,215.54466487111782,
Pz,73.52815244808227,238.2169254168455,224.93501980496893,126.88881613654341,95.09799872673523,
T8,183.92064227713524,400.29305484928943,527.7293004984365,238.3769971898006,231.8000492455281,
AF4,238.9691937224403,340.28971696708373,478.4108978255676,143.3072748297997,239.07407011259917,
AF3,713.9741287017569,557.2663870389193,300.53243177344325,204.19148328820347,290.86328794340596,
T7,288.1078564171119,757.3660538650446,659.3687300265728,235.83811341836267,215.54466487111782,
Pz,73.52815244808227,238.2169254168455,224.93501980496893,126.88881613654341,95.09799872673523,
T8,183.92064227713524,400.29305484928943,527.7293004984365,238.3769971898006,231.8000492455281,
AF4,238.9691937224403,340.28971696708373,478.4108978255676,143.3072748297997,239.07407011259917,
AF3,713.9741287017569,557.2663870389193,300.53243177344325,204.19148328820347,290.86328794340596,
T7,288.1078564171119,757.3660538650446,659.3687300265728,235.83811341836267,215.54466487111782,
Pz,73.52815244808227,238.2169254168455,224.93501980496893,126.88881613654341,95.09799872673523,
T8,183.92064227713524,400.29305484928943,527.7293004984365,238.3769971898006,231.8000492455281,
AF4,238.9691937224403,340.28971696708373,478.4108978255676,143.3072748297997,239.07407011259917,
AF3,713.9741287017569,557.2663870389193,300.53243177344325,204.19148328820347,290.86328794340596,
T7,288.1078564171119,757.3660538650446,659.3687300265728,235.83811341836267,215.54466487111782,
Pz,73.52815244808227,238.2169254168455,224.93501980496893,126.88881613654341,95.09799872673523,
T8,183.92064227713524,400.29305484928943,527.7293004984365,238.3769971898006,231.8000492455281,
AF4,238.9691937224403,340.28971696708373,478.4108978255676,143.3072748297997,239.07407011259917,
AF3,713.9741287017569,557.2663870389193,300.53243177344325,204.19148328820347,290.86328794340596,
T7,288.1078564171119,757.3660538650446,659.3687300265728,235.83811341836267,215.54466487111782,
Pz,73.52815244808227,238.2169254168455,224.93501980496893,126.88881613654341,95.09799872673523,
T8,183.92064227713524,400.29305484928943,527.7293004984365,238.3769971898006,231.8000492455281,
AF4,238.9691937224403,340.28971696708373,478.4108978255676,143.3072748297997,239.07407011259917,
AF3,713.9741287017569,557.2663870389193,300.53243177344325,204.19148328820347,290.86328794340596,
T7,288.1078564171119,757.3660538650446,659.3687300265728,235.83811341836267,215.54466487111782,
Pz,73.52815244808227,238.2169254168455,224.93501980496893,126.88881613654341,95.09799872673523,
T8,183.92064227713524,400.29305484928943,527.7293004984365,238.3769971898006,231.8000492455281,
AF4,238.9691937224403,340.28971696708373,478.4108978255676,143.3072748297997,239.07407011259917,
AF3,713.9741287017569,557.2663870389193,300.53243177344325,204.19148328820347,290.86328794340596,
T7,288.1078564171119,757.3660538650446,659.3687300265728,235.83811341836267,215.54466487111782,
Pz,73.52815244808227,238.2169254168455,224.93501980496893,126.88881613654341,95.09799872673523,
T8,183.92064227713524,400.29305484928943,527.7293004984365,238.3769971898006,231.8000492455281,
AF4,238.9691937224403,340.28971696708373,478.4108978255676,143.3072748297997,239.07407011259917,
AF3,713.9741287017569,557.2663870389193,300.53243177344325,204.19148328820347,290.86328794340596,
T7,288.1078564171119,757.3660538650446,659.3687300265728,235.83811341836267,215.54466487111782,
Pz,73.52815244808227,238.2169254168455,224.93501980496893,126.88881613654341,95.09799872673523,
T8,183.92064227713524,400.29305484928943,527.7293004984365,238.3769971898006,231.8000492455281,
AF4,238.9691937224403,340.28971696708373,478.4108978255676,143.3072748297997,239.07407011259917,
AF3,713.9741287017569,557.2663870389193,300.53243177344325,204.19148328820347,290.86328794340596,
T7,288.1078564171119,757.3660538650446,659.3687300265728,235.83811341836267,215.54466487111782,
Pz,73.52815244808227,238.2169254168455,224.93501980496893,126.88881613654341,95.09799872673523,
T8,183.92064227713524,400.29305484928943,527.7293004984365,238.3769971898006,231.8000492455281,
AF4,238.9691937224403,340.28971696708373,478.4108978255676,143.3072748297997,239.07407011259917,
AF3,713.9741287017569,557.2663870389193,300.53243177344325,204.19148328820347,290.86328794340596,
T7,288.1078564171119,757.3660538650446,659.3687300265728,235.83811341836267,215.54466487111782,
Pz,73.52815244808227,238.2169254168455,224.93501980496893,126.88881613654341,95.09799872673523,
T8,183.92064227713524,400.29305484928943,527.7293004984365,238.3769971898006,231.8000492455281,
AF4,238.9691937224403,340.28971696708373,478.4108978255676,143.3072748297997,239.07407011259917,
AF3,713.9741287017569,557.2663870389193,300.53243177344325,204.19148328820347,290.86328794340596,
T7,288.1078564171119,757.3660538650446,659.3687300265728,235.83811341836267,215.54466487111782,
Pz,73.52815244808227,238.2169254168455,224.93501980496893,126.88881613654341,95.09799872673523,
T8,183.92064227713524,400.29305484928943,527.7293004984365,238.3769971898006,231.8000492455281,
AF4,238.9691937224403,340.28971696708373,478.4108978255676,143.3072748297997,239.07407011259917,
AF3,713.9741287017569,557.2663870389193,300.53243177344325,204.19148328820347,290.86328794340596,
T7,288.1078564171119,757.3660538650446,659.3687300265728,235.83811341836267,215.54466487111782,
Pz,73.52815244808227,238.2169254168455,224.93501980496893,126.88881613654341,95.09799872673523,
T8,183.92064227713524,400.29305484928943,527.7293004984365,238.3769971898006,231.8000492455281,
AF4,238.9691937224403,340.28971696708373,478.4108978255676,143.3072748297997,239.07407011259917,
AF3,713.9741287017569,557.2663870389193,300.53243177344325,204.19148328820347,290.86328794340596,
T7,288.1078564171119,757.3660538650446,659.3687300265728,235.83811341836267,215.54466487111782,
Pz,73.52815244808227,238.2169254168455,224.93501980496893,126.88881613654341,95.09799872673523,
T8,183.92064227713524,400.29305484928943,527.7293004984365,238.3769971898006,231.8000492455281,
AF4,238.9691937224403,340.28971696708373,478.4108978255676,143.3072748297997,239.07407011259917,
AF3,713.9741287017569,557.2663870389193,300.53243177344325,204.19148328820347,290.86328794340596,
T7,288.1078564171119,757.3660538650446,659.3687300265728,235.83811341836267,215.54466487111782,
Pz,73.52815244808227,238.2169254168455,224.93501980496893,126.88881613654341,95.09799872673523,
T8,183.92064227713524,400.29305484928943,527.7293004984365,238.3769971898006,231.8000492455281,
AF4,238.9691937224403,340.28971696708373,478.4108978255676,143.3072748297997,239.07407011259917,
AF3,713.9741287017569,557.2663870389193,300.53243177344325,204.19148328820347,290.86328794340596,
T7,288.1078564171119,757.3660538650446,659.3687300265728,235.83811341836267,215.54466487111782,
Pz,73.52815244808227,238.2169254168455,224.93501980496893,126.88881613654341,95.09799872673523,
T8,183.92064227713524,400.29305484928943,527.7293004984365,238.3769971898006,231.8000492455281,
AF4,238.9691937224403,340.28971696708373,478.4108978255676,143.3072748297997,239.07407011259917,
AF3,713.9741287017569,557.2663870389193,300.53243177344325,204.19148328820347,290.86328794340596,
T7,288.1078564171119,757.3660538650446,659.3687300265728,235.83811341836267,215.54466487111782,
Pz,73.52815244808227,238.2169254168455,224.93501980496893,126.88881613654341,95.09799872673523,
T8,183.92064227713524,400.29305484928943,527.7293004984365,238.3769971898006,231.8000492455281,
AF4,238.9691937224403,340.28971696708373,478.4108978255676,143.3072748297997,239.07407011259917,
AF3,713.9741287017569,557.2663870389193,300.53243177344325,204.19148328820347,290.86328794340596,
T7,288.1078564171119,757.3660538650446,659.3687300265728,235.83811341836267,215.54466487111782,
Pz,73.52815244808227,238.2169254168455,224.93501980496893,126.88881613654341,95.09799872673523,
T8,183.92064227713524,400.29305484928943,527.7293004984365,238.3769971898006,231.8000492455281,
AF4,238.9691937224403,340.28971696708373,478.4108978255676,143.3072748297997,239.07407011259917,
AF3,713.9741287017569,557.2663870389193,300.53243177344325,204.19148328820347,290.86328794340596,
T7,288.1078564171119,757.3660538650446,659.3687300265728,235.83811341836267,215.54466487111782,
Pz,73.52815244808227,238.2169254168455,224.93501980496893,126.88881613654341,95.09799872673523,
T8,183.92064227713524,400.29305484928943,527.7293004984365,238.3769971898006,231.8000492455281,
AF4,238.9691937224403,340.28971696708373,478.4108978255676,143.3072748297997,239.07407011259917,
AF3,713.9741287017569,557.2663870389193,300.53243177344325,204.19148328820347,290.86328794340596,
T7,288.1078564171119,757.3660538650446,659.3687300265728,235.83811341836267,215.54466487111782,
Pz,73.52815244808227,238.2169254168455,224.93501980496893,126.88881613654341,95.09799872673523,
T8,183.92064227713524,400.29305484928943,527.7293004984365,238.3769971898006,231.8000492455281,
AF4,238.9691937224403,340.28971696708373,478.4108978255676,143.3072748297997,239.07407011259917,
AF3,713.9741287017569,557.2663870389193,300.53243177344325,204.19148328820347,290.86328794340596,
T7,288.1078564171119,757.3660538650446,659.3687300265728,235.83811341836267,215.54466487111782,
Pz,73.52815244808227,238.2169254168455,224.93501980496893,126.88881613654341,95.09799872673523,
T8,183.92064227713524,400.29305484928943,527.7293004984365,238.3769971898006,231.8000492455281,
AF4,238.9691937224403,340.28971696708373,478.4108978255676,143.3072748297997,239.07407011259917,
AF3,713.9741287017569,557.2663870389193,300.53243177344325,204.19148328820347,290.86328794340596,
T7,288.1078564171119,757.3660538650446,659.3687300265728,235.83811341836267,215.54466487111782,
Pz,73.52815244808227,238.2169254168455,224.93501980496893,126.88881613654341,95.09799872673523,
T8,183.92064227713524,400.29305484928943,527.7293004984365,238.3769971898006,231.8000492455281,
AF4,238.9691937224403,340.28971696708373,478.4108978255676,143.3072748297997,239.07407011259917,
AF3,713.9741287017569,557.2663870389193,300.53243177344325,204.19148328820347,290.86328794340596,
T7,288.1078564171119,757.3660538650446,659.3687300265728,235.83811341836267,215.54466487111782,
Pz,73.52815244808227,238.2169254168455,224.93501980496893,126.88881613654341,95.09799872673523,
T8,183.92064227713524,400.29305484928943,527.7293004984365,238.3769971898006,231.8000492455281,
AF4,238.9691937224403,340.28971696708373,478.4108978255676,143.3072748297997,239.07407011259917,
AF3,713.9741287017569,557.2663870389193,300.53243177344325,204.19148328820347,290.86328794340596,
T7,288.1078564171119,757.3660538650446,659.3687300265728,235.83811341836267,215.54466487111782,
Pz,73.52815244808227,238.2169254168455,224.93501980496893,126.88881613654341,95.09799872673523,
T8,183.92064227713524,400.29305484928943,527.7293004984365,238.3769971898006,231.8000492455281,
AF4,238.9691937224403,340.28971696708373,478.4108978255676,143.3072748297997,239.07407011259917,
AF3,713.9741287017569,557.2663870389193,300.53243177344325,204.19148328820347,290.86328794340596,
T7,288.1078564171119,757.3660538650446,659.3687300265728,235.83811341836267,215.54466487111782,
Pz,73.52815244808227,238.2169254168455,224.93501980496893,126.88881613654341,95.09799872673523,
T8,183.92064227713524,400.29305484928943,527.7293004984365,238.3769971898006,231.8000492455281,
AF4,238.9691937224403,340.28971696708373,478.4108978255676,143.3072748297997,239.07407011259917,
AF3,713.9741287017569,557.2663870389193,300.53243177344325,204.19148328820347,290.86328794340596,
T7,288.1078564171119,757.3660538650446,659.3687300265728,235.83811341836267,215.54466487111782,
Pz,73.52815244808227,238.2169254168455,224.93501980496893,126.88881613654341,95.09799872673523,
T8,183.92064227713524,400.29305484928943,527.7293004984365,238.3769971898006,231.8000492455281,
AF4,238.9691937224403,340.28971696708373,478.4108978255676,143.3072748297997,239.07407011259917,
AF3,713.9741287017569,557.2663870389193,300.53243177344325,204.19148328820347,290.86328794340596,
T7,288.1078564171119,757.3660538650446,659.3687300265728,235.83811341836267,215.54466487111782,
Pz,73.52815244808227,238.2169254168455,224.93501980496893,126.88881613654341,95.09799872673523,
T8,183.92064227713524,400.29305484928943,527.7293004984365,238.3769971898006,231.8000492455281,
AF4,238.9691937224403,340.28971696708373,478.4108978255676,143.3072748297997,239.07407011259917,
AF3,713.9741287017569,557.2663870389193,300.53243177344325,204.19148328820347,290.86328794340596,
T7,288.1078564171119,757.3660538650446,659.3687300265728,235.83811341836267,215.54466487111782,
Pz,73.52815244808227,238.2169254168455,224.93501980496893,126.88881613654341,95.09799872673523,
T8,183.92064227713524,400.29305484928943,527.7293004984365,238.3769971898006,231.8000492455281,
AF4,238.9691937224403,340.28971696708373,478.4108978255676,143.3072748297997,239.07407011259917,
AF3,713.9741287017569,557.2663870389193,300.53243177344325,204.19148328820347,290.86328794340596,
T7,288.1078564171119,757.3660538650446,659.3687300265728,235.83811341836267,215.54466487111782,
Pz,73.52815244808227,238.2169254168455,224.93501980496893,126.88881613654341,95.09799872673523,
T8,183.92064227713524,400.29305484928943,527.7293004984365,238.3769971898006,231.8000492455281,
AF4,238.9691937224403,340.28971696708373,478.4108978255676,143.3072748297997,239.07407011259917,
AF3,713.9741287017569,557.2663870389193,300.53243177344325,204.19148328820347,290.86328794340596,
T7,288.1078564171119,757.3660538650446,659.3687300265728,235.83811341836267,215.54466487111782,
Pz,73.52815244808227,238.2169254168455,224.93501980496893,126.88881613654341,95.09799872673523,
T8,183.92064227713524,400.29305484928943,527.7293004984365,238.3769971898006,231.8000492455281,
AF4,238.9691937224403,340.28971696708373,478.4108978255676,143.3072748297997,239.07407011259917,
AF3,713.9741287017569,557.2663870389193,300.53243177344325,204.19148328820347,290.86328794340596,
T7,288.1078564171119,757.3660538650446,659.3687300265728,235.83811341836267,215.54466487111782,
Pz,73.52815244808227,238.2169254168455,224.93501980496893,126.88881613654341,95.09799872673523,
T8,183.92064227713524,400.29305484928943,527.7293004984365,238.3769971898006,231.8000492455281,
AF4,238.9691937224403,340.28971696708373,478.4108978255676,143.3072748297997,239.07407011259917,
AF3,713.9741287017569,557.2663870389193,300.53243177344325,204.19148328820347,290.86328794340596,
T7,288.1078564171119,757.3660538650446,659.3687300265728,235.83811341836267,215.54466487111782,
Pz,73.52815244808227,238.2169254168455,224.93501980496893,126.88881613654341,95.09799872673523,
T8,183.92064227713524,400.29305484928943,527.7293004984365,238.3769971898006,231.8000492455281,
AF4,238.9691937224403,340.28971696708373,478.4108978255676,143.3072748297997,239.07407011259917,
AF3,713.9741287017569,557.2663870389193,300.53243177344325,204.19148328820347,290.86328794340596,
T7,288.1078564171119,757.3660538650446,659.3687300265728,235.83811341836267,215.54466487111782,
Pz,73.52815244808227,238.2169254168455,224.93501980496893,126.88881613654341,95.09799872673523,
T8,183.92064227713524,400.29305484928943,527.7293004984365,238.3769971898006,231.8000492455281,
AF4,238.9691937224403,340.28971696708373,478.4108978255676,143.3072748297997,239.07407011259917,
AF3,713.9741287017569,557.2663870389193,300.53243177344325,204.19148328820347,290.86328794340596,
T7,288.1078564171119,757.3660538650446,659.3687300265728,235.83811341836267,215.54466487111782,
Pz,73.52815244808227,238.2169254168455,224.93501980496893,126.88881613654341,95.09799872673523,
T8,183.92064227713524,400.29305484928943,527.7293004984365,238.3769971898006,231.8000492455281,
AF4,238.9691937224403,340.28971696708373,478.4108978255676,143.3072748297997,239.07407011259917,
AF3,713.9741287017569,557.2663870389193,300.53243177344325,204.19148328820347,290.86328794340596,
T7,288.1078564171119,757.3660538650446,659.3687300265728,235.83811341836267,215.54466487111782,
Pz,73.52815244808227,238.2169254168455,224.93501980496893,126.88881613654341,95.09799872673523,
T8,183.92064227713524,400.29305484928943,527.7293004984365,238.3769971898006,231.8000492455281,
AF4,238.9691937224403,340.28971696708373,478.4108978255676,143.3072748297997,239.07407011259917,
AF3,713.9741287017569,557.2663870389193,300.53243177344325,204.19148328820347,290.86328794340596,
T7,288.1078564171119,757.3660538650446,659.3687300265728,235.83811341836267,215.54466487111782,
Pz,73.52815244808227,238.2169254168455,224.93501980496893,126.88881613654341,95.09799872673523,
T8,183.92064227713524,400.29305484928943,527.7293004984365,238.3769971898006,231.8000492455281,
AF4,238.9691937224403,340.28971696708373,478.4108978255676,143.3072748297997,239.07407011259917,
AF3,713.9741287017569,557.2663870389193,300.53243177344325,204.19148328820347,290.86328794340596,
T7,288.1078564171119,757.3660538650446,659.3687300265728,235.83811341836267,215.54466487111782,
Pz,73.52815244808227,238.2169254168455,224.93501980496893,126.88881613654341,95.09799872673523,
T8,183.92064227713524,400.29305484928943,527.7293004984365,238.3769971898006,231.8000492455281,
AF4,238.9691937224403,340.28971696708373,478.4108978255676,143.3072748297997,239.07407011259917,
AF3,713.9741287017569,557.2663870389193,300.53243177344325,204.19148328820347,290.86328794340596,
T7,288.1078564171119,757.3660538650446,659.3687300265728,235.83811341836267,215.54466487111782,
Pz,73.52815244808227,238.2169254168455,224.93501980496893,126.88881613654341,95.09799872673523,
T8,183.92064227713524,400.29305484928943,527.7293004984365,238.3769971898006,231.8000492455281,
AF4,238.9691937224403,340.28971696708373,478.4108978255676,143.3072748297997,239.07407011259917,
AF3,713.9741287017569,557.2663870389193,300.53243177344325,204.19148328820347,290.86328794340596,
T7,288.1078564171119,757.3660538650446,659.3687300265728,235.83811341836267,215.54466487111782,
Pz,73.52815244808227,238.2169254168455,224.93501980496893,126.88881613654341,95.09799872673523,
T8,183.92064227713524,400.29305484928943,527.7293004984365,238.3769971898006,231.8000492455281,
AF4,238.9691937224403,340.28971696708373,478.4108978255676,143.3072748297997,239.07407011259917,
AF3,713.9741287017569,557.2663870389193,300.53243177344325,204.19148328820347,290.86328794340596,
T7,288.1078564171119,757.3660538650446,659.3687300265728,235.83811341836267,215.54466487111782,
Pz,73.52815244808227,238.2169254168455,224.93501980496893,126.88881613654341,95.09799872673523,
T8,183.92064227713524,400.29305484928943,527.7293004984365,238.3769971898006,231.8000492455281,
AF4,238.9691937224403,340.28971696708373,478.4108978255676,143.3072748297997,239.07407011259917,
AF3,713.9741287017569,557.2663870389193,300.53243177344325,204.19148328820347,290.86328794340596,
T7,288.1078564171119,757.3660538650446,659.3687300265728,235.83811341836267,215.54466487111782,
Pz,73.52815244808227,238.2169254168455,224.93501980496893,126.88881613654341,95.09799872673523,
T8,183.92064227713524,400.29305484928943,527.7293004984365,238.3769971898006,231.8000492455281,
AF4,238.9691937224403,340.28971696708373,478.4108978255676,143.3072748297997,239.07407011259917,
AF3,713.9741287017569,557.2663870389193,300.53243177344325,204.19148328820347,290.86328794340596,
T7,288.1078564171119,757.3660538650446,659.3687300265728,235.83811341836267,215.54466487111782,
Pz,73.52815244808227,238.2169254168455,224.93501980496893,126.88881613654341,95.09799872673523,
T8,183.92064227713524,400.29305484928943,527.7293004984365,238.3769971898006,231.8000492455281,
AF4,238.9691937224403,340.28971696708373,478.4108978255676,143.3072748297997,239.07407011259917,
AF3,713.9741287017569,557.2663870389193,300.53243177344325,204.19148328820347,290.86328794340596,
T7,288.1078564171119,757.3660538650446,659.3687300265728,235.83811341836267,215.54466487111782,
Pz,73.52815244808227,238.2169254168455,224.93501980496893,126.88881613654341,95.09799872673523,
T8,183.92064227713524,400.29305484928943,527.7293004984365,238.3769971898006,231.8000492455281,
AF4,238.9691937224403,340.28971696708373,478.4108978255676,143.3072748297997,239.07407011259917,
AF3,713.9741287017569,557.2663870389193,300.53243177344325,204.19148328820347,290.86328794340596,
T7,288.1078564171119,757.3660538650446,659.3687300265728,235.83811341836267,215.54466487111782,
Pz,73.52815244808227,238.2169254168455,224.93501980496893,126.88881613654341,95.09799872673523,
T8,183.92064227713524,400.29305484928943,527.7293004984365,238.3769971898006,231.8000492455281,
AF4,238.9691937224403,340.28971696708373,478.4108978255676,143.3072748297997,239.07407011259917,
AF3,713.9741287017569,557.2663870389193,300.53243177344325,204.19148328820347,290.86328794340596,
T7,288.1078564171119,757.3660538650446,659.3687300265728,235.83811341836267,215.54466487111782,
Pz,73.52815244808227,238.2169254168455,224.93501980496893,126.88881613654341,95.09799872673523,
T8,183.92064227713524,400.29305484928943,527.7293004984365,238.3769971898006,231.8000492455281,
AF4,238.9691937224403,340.28971696708373,478.4108978255676,143.3072748297997,239.07407011259917,
AF3,713.9741287017569,557.2663870389193,300.53243177344325,204.19148328820347,290.86328794340596,
T7,288.1078564171119,757.3660538650446,659.3687300265728,235.83811341836267,215.54466487111782,
Pz,73.52815244808227,238.2169254168455,224.93501980496893,126.88881613654341,95.09799872673523,
T8,183.92064227713524,400.29305484928943,527.7293004984365,238.3769971898006,231.8000492455281,
AF4,238.9691937224403,340.28971696708373,478.4108978255676,143.3072748297997,239.07407011259917,
AF3,713.9741287017569,557.2663870389193,300.53243177344325,204.19148328820347,290.86328794340596,
T7,288.1078564171119,757.3660538650446,659.3687300265728,235.83811341836267,215.54466487111782,
Pz,73.52815244808227,238.2169254168455,224.93501980496893,126.88881613654341,95.09799872673523,
T8,183.92064227713524,400.29305484928943,527.7293004984365,238.3769971898006,231.8000492455281,
AF4,238.9691937224403,340.28971696708373,478.4108978255676,143.3072748297997,239.07407011259917,
AF3,713.9741287017569,557.2663870389193,300.53243177344325,204.19148328820347,290.86328794340596,
T7,288.1078564171119,757.3660538650446,659.3687300265728,235.83811341836267,215.54466487111782,
Pz,73.52815244808227,238.2169254168455,224.93501980496893,126.88881613654341,95.09799872673523,
T8,183.92064227713524,400.29305484928943,527.7293004984365,238.3769971898006,231.8000492455281,
AF4,238.9691937224403,340.28971696708373,478.4108978255676,143.3072748297997,239.07407011259917,
AF3,713.9741287017569,557.2663870389193,300.53243177344325,204.19148328820347,290.86328794340596,
T7,288.1078564171119,757.3660538650446,659.3687300265728,235.83811341836267,215.54466487111782,
Pz,73.52815244808227,238.2169254168455,224.93501980496893,126.88881613654341,95.09799872673523,
T8,183.92064227713524,400.29305484928943,527.7293004984365,238.3769971898006,231.8000492455281,
AF4,238.9691937224403,340.28971696708373,478.4108978255676,143.3072748297997,239.07407011259917,
AF3,713.9741287017569,557.2663870389193,300.53243177344325,204.19148328820347,290.86328794340596,
T7,288.1078564171119,757.3660538650446,659.3687300265728,235.83811341836267,215.54466487111782,
Pz,73.52815244808227,238.2169254168455,224.93501980496893,126.88881613654341,95.09799872673523,
T8,183.92064227713524,400.29305484928943,527.7293004984365,238.3769971898006,231.8000492455281,
AF4,238.9691937224403,340.28971696708373,478.4108978255676,143.3072748297997,239.07407011259917,
AF3,713.9741287017569,557.2663870389193,300.53243177344325,204.19148328820347,290.86328794340596,
T7,288.1078564171119,757.3660538650446,659.3687300265728,235.83811341836267,215.54466487111782,
Pz,73.52815244808227,238.2169254168455,224.93501980496893,126.88881613654341,95.09799872673523,
T8,183.92064227713524,400.29305484928943,527.7293004984365,238.3769971898006,231.8000492455281,
AF4,238.9691937224403,340.28971696708373,478.4108978255676,143.3072748297997,239.07407011259917,
AF3,713.9741287017569,557.2663870389193,300.53243177344325,204.19148328820347,290.86328794340596,
T7,288.1078564171119,757.3660538650446,659.3687300265728,235.83811341836267,215.54466487111782,
Pz,73.52815244808227,238.2169254168455,224.93501980496893,126.88881613654341,95.09799872673523,
T8,183.92064227713524,400.29305484928943,527.7293004984365,238.3769971898006,231.8000492455281,
AF4,238.9691937224403,340.28971696708373,478.4108978255676,143.3072748297997,239.07407011259917,
AF3,713.9741287017569,557.2663870389193,300.53243177344325,204.19148328820347,290.86328794340596,
T7,288.1078564171119,757.3660538650446,659.3687300265728,235.83811341836267,215.54466487111782,
Pz,73.52815244808227,238.2169254168455,224.93501980496893,126.88881613654341,95.09799872673523,
T8,183.92064227713524,400.29305484928943,527.7293004984365,238.3769971898006,231.8000492455281,
AF4,238.9691937224403,340.28971696708373,478.4108978255676,143.3072748297997,239.07407011259917,
AF3,713.9741287017569,557.2663870389193,300.53243177344325,204.19148328820347,290.86328794340596,
T7,288.1078564171119,757.3660538650446,659.3687300265728,235.83811341836267,215.54466487111782,
Pz,73.52815244808227,238.2169254168455,224.93501980496893,126.88881613654341,95.09799872673523,
T8,183.92064227713524,400.29305484928943,527.7293004984365,238.3769971898006,231.8000492455281,
AF4,238.9691937224403,340.28971696708373,478.4108978255676,143.3072748297997,239.07407011259917,
AF3,713.9741287017569,557.2663870389193,300.53243177344325,204.19148328820347,290.86328794340596,
T7,288.1078564171119,757.3660538650446,659.3687300265728,235.83811341836267,215.54466487111782,
Pz,73.52815244808227,238.2169254168455,224.93501980496893,126.88881613654341,95.09799872673523,
T8,183.92064227713524,400.29305484928943,527.7293004984365,238.3769971898006,231.8000492455281,
AF4,238.9691937224403,340.28971696708373,478.4108978255676,143.3072748297997,239.07407011259917,
AF3,713.9741287017569,557.2663870389193,300.53243177344325,204.19148328820347,290.86328794340596,
T7,288.1078564171119,757.3660538650446,659.3687300265728,235.83811341836267,215.54466487111782,
Pz,73.52815244808227,238.2169254168455,224.93501980496893,126.88881613654341,95.09799872673523,
T8,183.92064227713524,400.29305484928943,527.7293004984365,238.3769971898006,231.8000492455281,
AF4,238.9691937224403,340.28971696708373,478.4108978255676,143.3072748297997,239.07407011259917,
AF3,713.9741287017569,557.2663870389193,300.53243177344325,204.19148328820347,290.86328794340596,
T7,288.1078564171119,757.3660538650446,659.3687300265728,235.83811341836267,215.54466487111782,
Pz,73.52815244808227,238.2169254168455,224.93501980496893,126.88881613654341,95.09799872673523,
T8,183.92064227713524,400.29305484928943,527.7293004984365,238.3769971898006,231.8000492455281,
AF4,238.9691937224403,340.28971696708373,478.4108978255676,143.3072748297997,239.07407011259917,
AF3,713.9741287017569,557.2663870389193,300.53243177344325,204.19148328820347,290.86328794340596,
T7,288.1078564171119,757.3660538650446,659.3687300265728,235.83811341836267,215.54466487111782,
Pz,73.52815244808227,238.2169254168455,224.93501980496893,126.88881613654341,95.09799872673523,
T8,183.92064227713524,400.29305484928943,527.7293004984365,238.3769971898006,231.8000492455281,
AF4,238.9691937224403,340.28971696708373,478.4108978255676,143.3072748297997,239.07407011259917,
AF3,713.9741287017569,557.2663870389193,300.53243177344325,204.19148328820347,290.86328794340596,
T7,288.1078564171119,757.3660538650446,659.3687300265728,235.83811341836267,215.54466487111782,
Pz,73.52815244808227,238.2169254168455,224.93501980496893,126.88881613654341,95.09799872673523,
T8,183.92064227713524,400.29305484928943,527.7293004984365,238.3769971898006,231.8000492455281,
AF4,238.9691937224403,340.28971696708373,478.4108978255676,143.3072748297997,239.07407011259917,
AF3,713.9741287017569,557.2663870389193,300.53243177344325,204.19148328820347,290.86328794340596,
T7,288.1078564171119,757.3660538650446,659.3687300265728,235.83811341836267,215.54466487111782,
Pz,73.52815244808227,238.2169254168455,224.93501980496893,126.88881613654341,95.09799872673523,
T8,183.92064227713524,400.29305484928943,527.7293004984365,238.3769971898006,231.8000492455281,
AF4,238.9691937224403,340.28971696708373,478.4108978255676,143.3072748297997,239.07407011259917,
AF3,713.9741287017569,557.2663870389193,300.53243177344325,204.19148328820347,290.86328794340596,
T7,288.1078564171119,757.3660538650446,659.3687300265728,235.83811341836267,215.54466487111782,
Pz,73.52815244808227,238.2169254168455,224.93501980496893,126.88881613654341,95.09799872673523,
T8,183.92064227713524,400.29305484928943,527.7293004984365,238.3769971898006,231.8000492455281,
AF4,238.9691937224403,340.28971696708373,478.4108978255676,143.3072748297997,239.07407011259917,
AF3,713.9741287017569,557.2663870389193,300.53243177344325,204.19148328820347,290.86328794340596,
T7,288.1078564171119,757.3660538650446,659.3687300265728,235.83811341836267,215.54466487111782,
Pz,73.52815244808227,238.2169254168455,224.93501980496893,126.88881613654341,95.09799872673523,
T8,183.92064227713524,400.29305484928943,527.7293004984365,238.3769971898006,231.8000492455281,
AF4,238.9691937224403,340.28971696708373,478.4108978255676,143.3072748297997,239.07407011259917,
AF3,713.9741287017569,557.2663870389193,300.53243177344325,204.19148328820347,290.86328794340596,
T7,288.1078564171119,757.3660538650446,659.3687300265728,235.83811341836267,215.54466487111782,
Pz,73.52815244808227,238.2169254168455,224.93501980496893,126.88881613654341,95.09799872673523,
T8,183.92064227713524,400.29305484928943,527.7293004984365,238.3769971898006,231.8000492455281,
AF4,238.9691937224403,340.28971696708373,478.4108978255676,143.3072748297997,239.07407011259917,
AF3,314.42900289198326,414.0238315641952,290.76987148675846,188.70774142146317,261.78338381219044,
T7,277.72428086722715,1071.4534617924025,208.68481307489938,419.05733890591006,209.8619553094774,
Pz,75.9833562175307,69.88476022850593,109.0685804377459,98.37088225490452,70.51908332252604,
T8,140.05713562611177,394.49343969358677,184.65935598829446,300.3883158012585,223.17156539093278,
AF4,318.9299469720852,405.6455858791901,308.2988718820149,342.03237950842913,322.1822770071141,
AF3,314.42900289198326,414.0238315641952,290.76987148675846,188.70774142146317,261.78338381219044,
T7,277.72428086722715,1071.4534617924025,208.68481307489938,419.05733890591006,209.8619553094774,
Pz,75.9833562175307,69.88476022850593,109.0685804377459,98.37088225490452,70.51908332252604,
T8,140.05713562611177,394.49343969358677,184.65935598829446,300.3883158012585,223.17156539093278,
AF4,318.9299469720852,405.6455858791901,308.2988718820149,342.03237950842913,322.1822770071141,
AF3,314.42900289198326,414.0238315641952,290.76987148675846,188.70774142146317,261.78338381219044,
T7,277.72428086722715,1071.4534617924025,208.68481307489938,419.05733890591006,209.8619553094774,
Pz,75.9833562175307,69.88476022850593,109.0685804377459,98.37088225490452,70.51908332252604,
T8,140.05713562611177,394.49343969358677,184.65935598829446,300.3883158012585,223.17156539093278,
AF4,318.9299469720852,405.6455858791901,308.2988718820149,342.03237950842913,322.1822770071141,
AF3,314.42900289198326,414.0238315641952,290.76987148675846,188.70774142146317,261.78338381219044,
T7,277.72428086722715,1071.4534617924025,208.68481307489938,419.05733890591006,209.8619553094774,
Pz,75.9833562175307,69.88476022850593,109.0685804377459,98.37088225490452,70.51908332252604,
T8,140.05713562611177,394.49343969358677,184.65935598829446,300.3883158012585,223.17156539093278,
AF4,318.9299469720852,405.6455858791901,308.2988718820149,342.03237950842913,322.1822770071141,
AF3,314.42900289198326,414.0238315641952,290.76987148675846,188.70774142146317,261.78338381219044,
T7,277.72428086722715,1071.4534617924025,208.68481307489938,419.05733890591006,209.8619553094774,
Pz,75.9833562175307,69.88476022850593,109.0685804377459,98.37088225490452,70.51908332252604,
T8,140.05713562611177,394.49343969358677,184.65935598829446,300.3883158012585,223.17156539093278,
AF4,318.9299469720852,405.6455858791901,308.2988718820149,342.03237950842913,322.1822770071141,
AF3,314.42900289198326,414.0238315641952,290.76987148675846,188.70774142146317,261.78338381219044,
T7,277.72428086722715,1071.4534617924025,208.68481307489938,419.05733890591006,209.8619553094774,
Pz,75.9833562175307,69.88476022850593,109.0685804377459,98.37088225490452,70.51908332252604,
T8,140.05713562611177,394.49343969358677,184.65935598829446,300.3883158012585,223.17156539093278,
AF4,318.9299469720852,405.6455858791901,308.2988718820149,342.03237950842913,322.1822770071141,
AF3,314.42900289198326,414.0238315641952,290.76987148675846,188.70774142146317,261.78338381219044,
T7,277.72428086722715,1071.4534617924025,208.68481307489938,419.05733890591006,209.8619553094774,
Pz,75.9833562175307,69.88476022850593,109.0685804377459,98.37088225490452,70.51908332252604,
T8,140.05713562611177,394.49343969358677,184.65935598829446,300.3883158012585,223.17156539093278,
AF4,318.9299469720852,405.6455858791901,308.2988718820149,342.03237950842913,322.1822770071141,
AF3,314.42900289198326,414.0238315641952,290.76987148675846,188.70774142146317,261.78338381219044,
T7,277.72428086722715,1071.4534617924025,208.68481307489938,419.05733890591006,209.8619553094774,
Pz,75.9833562175307,69.88476022850593,109.0685804377459,98.37088225490452,70.51908332252604,
T8,140.05713562611177,394.49343969358677,184.65935598829446,300.3883158012585,223.17156539093278,
AF4,318.9299469720852,405.6455858791901,308.2988718820149,342.03237950842913,322.1822770071141,
AF3,314.42900289198326,414.0238315641952,290.76987148675846,188.70774142146317,261.78338381219044,
T7,277.72428086722715,1071.4534617924025,208.68481307489938,419.05733890591006,209.8619553094774,
Pz,75.9833562175307,69.88476022850593,109.0685804377459,98.37088225490452,70.51908332252604,
T8,140.05713562611177,394.49343969358677,184.65935598829446,300.3883158012585,223.17156539093278,
AF4,318.9299469720852,405.6455858791901,308.2988718820149,342.03237950842913,322.1822770071141,
AF3,314.42900289198326,414.0238315641952,290.76987148675846,188.70774142146317,261.78338381219044,
T7,277.72428086722715,1071.4534617924025,208.68481307489938,419.05733890591006,209.8619553094774,
Pz,75.9833562175307,69.88476022850593,109.0685804377459,98.37088225490452,70.51908332252604,
T8,140.05713562611177,394.49343969358677,184.65935598829446,300.3883158012585,223.17156539093278,
AF4,318.9299469720852,405.6455858791901,308.2988718820149,342.03237950842913,322.1822770071141,
AF3,314.42900289198326,414.0238315641952,290.76987148675846,188.70774142146317,261.78338381219044,
T7,277.72428086722715,1071.4534617924025,208.68481307489938,419.05733890591006,209.8619553094774,
Pz,75.9833562175307,69.88476022850593,109.0685804377459,98.37088225490452,70.51908332252604,
T8,140.05713562611177,394.49343969358677,184.65935598829446,300.3883158012585,223.17156539093278,
AF4,318.9299469720852,405.6455858791901,308.2988718820149,342.03237950842913,322.1822770071141,
AF3,314.42900289198326,414.0238315641952,290.76987148675846,188.70774142146317,261.78338381219044,
T7,277.72428086722715,1071.4534617924025,208.68481307489938,419.05733890591006,209.8619553094774,
Pz,75.9833562175307,69.88476022850593,109.0685804377459,98.37088225490452,70.51908332252604,
T8,140.05713562611177,394.49343969358677,184.65935598829446,300.3883158012585,223.17156539093278,
AF4,318.9299469720852,405.6455858791901,308.2988718820149,342.03237950842913,322.1822770071141,
AF3,314.42900289198326,414.0238315641952,290.76987148675846,188.70774142146317,261.78338381219044,
T7,277.72428086722715,1071.4534617924025,208.68481307489938,419.05733890591006,209.8619553094774,
Pz,75.9833562175307,69.88476022850593,109.0685804377459,98.37088225490452,70.51908332252604,
T8,140.05713562611177,394.49343969358677,184.65935598829446,300.3883158012585,223.17156539093278,
AF4,318.9299469720852,405.6455858791901,308.2988718820149,342.03237950842913,322.1822770071141,
AF3,314.42900289198326,414.0238315641952,290.76987148675846,188.70774142146317,261.78338381219044,
T7,277.72428086722715,1071.4534617924025,208.68481307489938,419.05733890591006,209.8619553094774,
Pz,75.9833562175307,69.88476022850593,109.0685804377459,98.37088225490452,70.51908332252604,
T8,140.05713562611177,394.49343969358677,184.65935598829446,300.3883158012585,223.17156539093278,
AF4,318.9299469720852,405.6455858791901,308.2988718820149,342.03237950842913,322.1822770071141,
AF3,314.42900289198326,414.0238315641952,290.76987148675846,188.70774142146317,261.78338381219044,
T7,277.72428086722715,1071.4534617924025,208.68481307489938,419.05733890591006,209.8619553094774,
Pz,75.9833562175307,69.88476022850593,109.0685804377459,98.37088225490452,70.51908332252604,
T8,140.05713562611177,394.49343969358677,184.65935598829446,300.3883158012585,223.17156539093278,
AF4,318.9299469720852,405.6455858791901,308.2988718820149,342.03237950842913,322.1822770071141,
AF3,314.42900289198326,414.0238315641952,290.76987148675846,188.70774142146317,261.78338381219044,
T7,277.72428086722715,1071.4534617924025,208.68481307489938,419.05733890591006,209.8619553094774,
Pz,75.9833562175307,69.88476022850593,109.0685804377459,98.37088225490452,70.51908332252604,
T8,140.05713562611177,394.49343969358677,184.65935598829446,300.3883158012585,223.17156539093278,
AF4,318.9299469720852,405.6455858791901,308.2988718820149,342.03237950842913,322.1822770071141,
AF3,314.42900289198326,414.0238315641952,290.76987148675846,188.70774142146317,261.78338381219044,
T7,277.72428086722715,1071.4534617924025,208.68481307489938,419.05733890591006,209.8619553094774,
Pz,75.9833562175307,69.88476022850593,109.0685804377459,98.37088225490452,70.51908332252604,
T8,140.05713562611177,394.49343969358677,184.65935598829446,300.3883158012585,223.17156539093278,
AF4,318.9299469720852,405.6455858791901,308.2988718820149,342.03237950842913,322.1822770071141,
AF3,314.42900289198326,414.0238315641952,290.76987148675846,188.70774142146317,261.78338381219044,
T7,277.72428086722715,1071.4534617924025,208.68481307489938,419.05733890591006,209.8619553094774,
Pz,75.9833562175307,69.88476022850593,109.0685804377459,98.37088225490452,70.51908332252604,
T8,140.05713562611177,394.49343969358677,184.65935598829446,300.3883158012585,223.17156539093278,
AF4,318.9299469720852,405.6455858791901,308.2988718820149,342.03237950842913,322.1822770071141,
AF3,314.42900289198326,414.0238315641952,290.76987148675846,188.70774142146317,261.78338381219044,
T7,277.72428086722715,1071.4534617924025,208.68481307489938,419.05733890591006,209.8619553094774,
Pz,75.9833562175307,69.88476022850593,109.0685804377459,98.37088225490452,70.51908332252604,
T8,140.05713562611177,394.49343969358677,184.65935598829446,300.3883158012585,223.17156539093278,
AF4,318.9299469720852,405.6455858791901,308.2988718820149,342.03237950842913,322.1822770071141,
AF3,314.42900289198326,414.0238315641952,290.76987148675846,188.70774142146317,261.78338381219044,
T7,277.72428086722715,1071.4534617924025,208.68481307489938,419.05733890591006,209.8619553094774,
Pz,75.9833562175307,69.88476022850593,109.0685804377459,98.37088225490452,70.51908332252604,
T8,140.05713562611177,394.49343969358677,184.65935598829446,300.3883158012585,223.17156539093278,
AF4,318.9299469720852,405.6455858791901,308.2988718820149,342.03237950842913,322.1822770071141,
AF3,314.42900289198326,414.0238315641952,290.76987148675846,188.70774142146317,261.78338381219044,
T7,277.72428086722715,1071.4534617924025,208.68481307489938,419.05733890591006,209.8619553094774,
Pz,75.9833562175307,69.88476022850593,109.0685804377459,98.37088225490452,70.51908332252604,
T8,140.05713562611177,394.49343969358677,184.65935598829446,300.3883158012585,223.17156539093278,
AF4,318.9299469720852,405.6455858791901,308.2988718820149,342.03237950842913,322.1822770071141,
AF3,314.42900289198326,414.0238315641952,290.76987148675846,188.70774142146317,261.78338381219044,
T7,277.72428086722715,1071.4534617924025,208.68481307489938,419.05733890591006,209.8619553094774,
Pz,75.9833562175307,69.88476022850593,109.0685804377459,98.37088225490452,70.51908332252604,
T8,140.05713562611177,394.49343969358677,184.65935598829446,300.3883158012585,223.17156539093278,
AF4,318.9299469720852,405.6455858791901,308.2988718820149,342.03237950842913,322.1822770071141,
AF3,314.42900289198326,414.0238315641952,290.76987148675846,188.70774142146317,261.78338381219044,
T7,277.72428086722715,1071.4534617924025,208.68481307489938,419.05733890591006,209.8619553094774,
Pz,75.9833562175307,69.88476022850593,109.0685804377459,98.37088225490452,70.51908332252604,
T8,140.05713562611177,394.49343969358677,184.65935598829446,300.3883158012585,223.17156539093278,
AF4,318.9299469720852,405.6455858791901,308.2988718820149,342.03237950842913,322.1822770071141,
AF3,314.42900289198326,414.0238315641952,290.76987148675846,188.70774142146317,261.78338381219044,
T7,277.72428086722715,1071.4534617924025,208.68481307489938,419.05733890591006,209.8619553094774,
Pz,75.9833562175307,69.88476022850593,109.0685804377459,98.37088225490452,70.51908332252604,
T8,140.05713562611177,394.49343969358677,184.65935598829446,300.3883158012585,223.17156539093278,
AF4,318.9299469720852,405.6455858791901,308.2988718820149,342.03237950842913,322.1822770071141,
AF3,314.42900289198326,414.0238315641952,290.76987148675846,188.70774142146317,261.78338381219044,
T7,277.72428086722715,1071.4534617924025,208.68481307489938,419.05733890591006,209.8619553094774,
Pz,75.9833562175307,69.88476022850593,109.0685804377459,98.37088225490452,70.51908332252604,
T8,140.05713562611177,394.49343969358677,184.65935598829446,300.3883158012585,223.17156539093278,
AF4,318.9299469720852,405.6455858791901,308.2988718820149,342.03237950842913,322.1822770071141,
AF3,314.42900289198326,414.0238315641952,290.76987148675846,188.70774142146317,261.78338381219044,
T7,277.72428086722715,1071.4534617924025,208.68481307489938,419.05733890591006,209.8619553094774,
Pz,75.9833562175307,69.88476022850593,109.0685804377459,98.37088225490452,70.51908332252604,
T8,140.05713562611177,394.49343969358677,184.65935598829446,300.3883158012585,223.17156539093278,
AF4,318.9299469720852,405.6455858791901,308.2988718820149,342.03237950842913,322.1822770071141,
AF3,314.42900289198326,414.0238315641952,290.76987148675846,188.70774142146317,261.78338381219044,
T7,277.72428086722715,1071.4534617924025,208.68481307489938,419.05733890591006,209.8619553094774,
Pz,75.9833562175307,69.88476022850593,109.0685804377459,98.37088225490452,70.51908332252604,
T8,140.05713562611177,394.49343969358677,184.65935598829446,300.3883158012585,223.17156539093278,
AF4,318.9299469720852,405.6455858791901,308.2988718820149,342.03237950842913,322.1822770071141,
AF3,314.42900289198326,414.0238315641952,290.76987148675846,188.70774142146317,261.78338381219044,
T7,277.72428086722715,1071.4534617924025,208.68481307489938,419.05733890591006,209.8619553094774,
Pz,75.9833562175307,69.88476022850593,109.0685804377459,98.37088225490452,70.51908332252604,
T8,140.05713562611177,394.49343969358677,184.65935598829446,300.3883158012585,223.17156539093278,
AF4,318.9299469720852,405.6455858791901,308.2988718820149,342.03237950842913,322.1822770071141,
AF3,314.42900289198326,414.0238315641952,290.76987148675846,188.70774142146317,261.78338381219044,
T7,277.72428086722715,1071.4534617924025,208.68481307489938,419.05733890591006,209.8619553094774,
Pz,75.9833562175307,69.88476022850593,109.0685804377459,98.37088225490452,70.51908332252604,
T8,140.05713562611177,394.49343969358677,184.65935598829446,300.3883158012585,223.17156539093278,
AF4,318.9299469720852,405.6455858791901,308.2988718820149,342.03237950842913,322.1822770071141,
AF3,314.42900289198326,414.0238315641952,290.76987148675846,188.70774142146317,261.78338381219044,
T7,277.72428086722715,1071.4534617924025,208.68481307489938,419.05733890591006,209.8619553094774,
Pz,75.9833562175307,69.88476022850593,109.0685804377459,98.37088225490452,70.51908332252604,
T8,140.05713562611177,394.49343969358677,184.65935598829446,300.3883158012585,223.17156539093278,
AF4,318.9299469720852,405.6455858791901,308.2988718820149,342.03237950842913,322.1822770071141,
AF3,314.42900289198326,414.0238315641952,290.76987148675846,188.70774142146317,261.78338381219044,
T7,277.72428086722715,1071.4534617924025,208.68481307489938,419.05733890591006,209.8619553094774,
Pz,75.9833562175307,69.88476022850593,109.0685804377459,98.37088225490452,70.51908332252604,
T8,140.05713562611177,394.49343969358677,184.65935598829446,300.3883158012585,223.17156539093278,
AF4,318.9299469720852,405.6455858791901,308.2988718820149,342.03237950842913,322.1822770071141,
AF3,314.42900289198326,414.0238315641952,290.76987148675846,188.70774142146317,261.78338381219044,
T7,277.72428086722715,1071.4534617924025,208.68481307489938,419.05733890591006,209.8619553094774,
Pz,75.9833562175307,69.88476022850593,109.0685804377459,98.37088225490452,70.51908332252604,
T8,140.05713562611177,394.49343969358677,184.65935598829446,300.3883158012585,223.17156539093278,
AF4,318.9299469720852,405.6455858791901,308.2988718820149,342.03237950842913,322.1822770071141,
AF3,314.42900289198326,414.0238315641952,290.76987148675846,188.70774142146317,261.78338381219044,
T7,277.72428086722715,1071.4534617924025,208.68481307489938,419.05733890591006,209.8619553094774,
Pz,75.9833562175307,69.88476022850593,109.0685804377459,98.37088225490452,70.51908332252604,
T8,140.05713562611177,394.49343969358677,184.65935598829446,300.3883158012585,223.17156539093278,
AF4,318.9299469720852,405.6455858791901,308.2988718820149,342.03237950842913,322.1822770071141,
AF3,314.42900289198326,414.0238315641952,290.76987148675846,188.70774142146317,261.78338381219044,
T7,277.72428086722715,1071.4534617924025,208.68481307489938,419.05733890591006,209.8619553094774,
Pz,75.9833562175307,69.88476022850593,109.0685804377459,98.37088225490452,70.51908332252604,
T8,140.05713562611177,394.49343969358677,184.65935598829446,300.3883158012585,223.17156539093278,
AF4,318.9299469720852,405.6455858791901,308.2988718820149,342.03237950842913,322.1822770071141,
AF3,314.42900289198326,414.0238315641952,290.76987148675846,188.70774142146317,261.78338381219044,
T7,277.72428086722715,1071.4534617924025,208.68481307489938,419.05733890591006,209.8619553094774,
Pz,75.9833562175307,69.88476022850593,109.0685804377459,98.37088225490452,70.51908332252604,
T8,140.05713562611177,394.49343969358677,184.65935598829446,300.3883158012585,223.17156539093278,
AF4,318.9299469720852,405.6455858791901,308.2988718820149,342.03237950842913,322.1822770071141,
AF3,314.42900289198326,414.0238315641952,290.76987148675846,188.70774142146317,261.78338381219044,
T7,277.72428086722715,1071.4534617924025,208.68481307489938,419.05733890591006,209.8619553094774,
Pz,75.9833562175307,69.88476022850593,109.0685804377459,98.37088225490452,70.51908332252604,
T8,140.05713562611177,394.49343969358677,184.65935598829446,300.3883158012585,223.17156539093278,
AF4,318.9299469720852,405.6455858791901,308.2988718820149,342.03237950842913,322.1822770071141,
AF3,314.42900289198326,414.0238315641952,290.76987148675846,188.70774142146317,261.78338381219044,
T7,277.72428086722715,1071.4534617924025,208.68481307489938,419.05733890591006,209.8619553094774,
Pz,75.9833562175307,69.88476022850593,109.0685804377459,98.37088225490452,70.51908332252604,
T8,140.05713562611177,394.49343969358677,184.65935598829446,300.3883158012585,223.17156539093278,
AF4,318.9299469720852,405.6455858791901,308.2988718820149,342.03237950842913,322.1822770071141,
AF3,314.42900289198326,414.0238315641952,290.76987148675846,188.70774142146317,261.78338381219044,
T7,277.72428086722715,1071.4534617924025,208.68481307489938,419.05733890591006,209.8619553094774,
Pz,75.9833562175307,69.88476022850593,109.0685804377459,98.37088225490452,70.51908332252604,
T8,140.05713562611177,394.49343969358677,184.65935598829446,300.3883158012585,223.17156539093278,
AF4,318.9299469720852,405.6455858791901,308.2988718820149,342.03237950842913,322.1822770071141,
AF3,314.42900289198326,414.0238315641952,290.76987148675846,188.70774142146317,261.78338381219044,
T7,277.72428086722715,1071.4534617924025,208.68481307489938,419.05733890591006,209.8619553094774,
Pz,75.9833562175307,69.88476022850593,109.0685804377459,98.37088225490452,70.51908332252604,
T8,140.05713562611177,394.49343969358677,184.65935598829446,300.3883158012585,223.17156539093278,
AF4,318.9299469720852,405.6455858791901,308.2988718820149,342.03237950842913,322.1822770071141,
AF3,314.42900289198326,414.0238315641952,290.76987148675846,188.70774142146317,261.78338381219044,
T7,277.72428086722715,1071.4534617924025,208.68481307489938,419.05733890591006,209.8619553094774,
Pz,75.9833562175307,69.88476022850593,109.0685804377459,98.37088225490452,70.51908332252604,
T8,140.05713562611177,394.49343969358677,184.65935598829446,300.3883158012585,223.17156539093278,
AF4,318.9299469720852,405.6455858791901,308.2988718820149,342.03237950842913,322.1822770071141,
AF3,314.42900289198326,414.0238315641952,290.76987148675846,188.70774142146317,261.78338381219044,
T7,277.72428086722715,1071.4534617924025,208.68481307489938,419.05733890591006,209.8619553094774,
Pz,75.9833562175307,69.88476022850593,109.0685804377459,98.37088225490452,70.51908332252604,
T8,140.05713562611177,394.49343969358677,184.65935598829446,300.3883158012585,223.17156539093278,
AF4,318.9299469720852,405.6455858791901,308.2988718820149,342.03237950842913,322.1822770071141,
AF3,314.42900289198326,414.0238315641952,290.76987148675846,188.70774142146317,261.78338381219044,
T7,277.72428086722715,1071.4534617924025,208.68481307489938,419.05733890591006,209.8619553094774,
Pz,75.9833562175307,69.88476022850593,109.0685804377459,98.37088225490452,70.51908332252604,
T8,140.05713562611177,394.49343969358677,184.65935598829446,300.3883158012585,223.17156539093278,
AF4,318.9299469720852,405.6455858791901,308.2988718820149,342.03237950842913,322.1822770071141,
AF3,314.42900289198326,414.0238315641952,290.76987148675846,188.70774142146317,261.78338381219044,
T7,277.72428086722715,1071.4534617924025,208.68481307489938,419.05733890591006,209.8619553094774,
Pz,75.9833562175307,69.88476022850593,109.0685804377459,98.37088225490452,70.51908332252604,
T8,140.05713562611177,394.49343969358677,184.65935598829446,300.3883158012585,223.17156539093278,
AF4,318.9299469720852,405.6455858791901,308.2988718820149,342.03237950842913,322.1822770071141,
AF3,314.42900289198326,414.0238315641952,290.76987148675846,188.70774142146317,261.78338381219044,
T7,277.72428086722715,1071.4534617924025,208.68481307489938,419.05733890591006,209.8619553094774,
Pz,75.9833562175307,69.88476022850593,109.0685804377459,98.37088225490452,70.51908332252604,
T8,140.05713562611177,394.49343969358677,184.65935598829446,300.3883158012585,223.17156539093278,
AF4,318.9299469720852,405.6455858791901,308.2988718820149,342.03237950842913,322.1822770071141,
AF3,314.42900289198326,414.0238315641952,290.76987148675846,188.70774142146317,261.78338381219044,
T7,277.72428086722715,1071.4534617924025,208.68481307489938,419.05733890591006,209.8619553094774,
Pz,75.9833562175307,69.88476022850593,109.0685804377459,98.37088225490452,70.51908332252604,
T8,140.05713562611177,394.49343969358677,184.65935598829446,300.3883158012585,223.17156539093278,
AF4,318.9299469720852,405.6455858791901,308.2988718820149,342.03237950842913,322.1822770071141,
AF3,314.42900289198326,414.0238315641952,290.76987148675846,188.70774142146317,261.78338381219044,
T7,277.72428086722715,1071.4534617924025,208.68481307489938,419.05733890591006,209.8619553094774,
Pz,75.9833562175307,69.88476022850593,109.0685804377459,98.37088225490452,70.51908332252604,
T8,140.05713562611177,394.49343969358677,184.65935598829446,300.3883158012585,223.17156539093278,
AF4,318.9299469720852,405.6455858791901,308.2988718820149,342.03237950842913,322.1822770071141,
AF3,314.42900289198326,414.0238315641952,290.76987148675846,188.70774142146317,261.78338381219044,
T7,277.72428086722715,1071.4534617924025,208.68481307489938,419.05733890591006,209.8619553094774,
Pz,75.9833562175307,69.88476022850593,109.0685804377459,98.37088225490452,70.51908332252604,
T8,140.05713562611177,394.49343969358677,184.65935598829446,300.3883158012585,223.17156539093278,
AF4,318.9299469720852,405.6455858791901,308.2988718820149,342.03237950842913,322.1822770071141,
AF3,314.42900289198326,414.0238315641952,290.76987148675846,188.70774142146317,261.78338381219044,
T7,277.72428086722715,1071.4534617924025,208.68481307489938,419.05733890591006,209.8619553094774,
Pz,75.9833562175307,69.88476022850593,109.0685804377459,98.37088225490452,70.51908332252604,
T8,140.05713562611177,394.49343969358677,184.65935598829446,300.3883158012585,223.17156539093278,
AF4,318.9299469720852,405.6455858791901,308.2988718820149,342.03237950842913,322.1822770071141,
AF3,314.42900289198326,414.0238315641952,290.76987148675846,188.70774142146317,261.78338381219044,
T7,277.72428086722715,1071.4534617924025,208.68481307489938,419.05733890591006,209.8619553094774,
Pz,75.9833562175307,69.88476022850593,109.0685804377459,98.37088225490452,70.51908332252604,
T8,140.05713562611177,394.49343969358677,184.65935598829446,300.3883158012585,223.17156539093278,
AF4,318.9299469720852,405.6455858791901,308.2988718820149,342.03237950842913,322.1822770071141,
AF3,314.42900289198326,414.0238315641952,290.76987148675846,188.70774142146317,261.78338381219044,
T7,277.72428086722715,1071.4534617924025,208.68481307489938,419.05733890591006,209.8619553094774,
Pz,75.9833562175307,69.88476022850593,109.0685804377459,98.37088225490452,70.51908332252604,
T8,140.05713562611177,394.49343969358677,184.65935598829446,300.3883158012585,223.17156539093278,
AF4,318.9299469720852,405.6455858791901,308.2988718820149,342.03237950842913,322.1822770071141,
AF3,314.42900289198326,414.0238315641952,290.76987148675846,188.70774142146317,261.78338381219044,
T7,277.72428086722715,1071.4534617924025,208.68481307489938,419.05733890591006,209.8619553094774,
Pz,75.9833562175307,69.88476022850593,109.0685804377459,98.37088225490452,70.51908332252604,
T8,140.05713562611177,394.49343969358677,184.65935598829446,300.3883158012585,223.17156539093278,
AF4,318.9299469720852,405.6455858791901,308.2988718820149,342.03237950842913,322.1822770071141,
AF3,314.42900289198326,414.0238315641952,290.76987148675846,188.70774142146317,261.78338381219044,
T7,277.72428086722715,1071.4534617924025,208.68481307489938,419.05733890591006,209.8619553094774,
Pz,75.9833562175307,69.88476022850593,109.0685804377459,98.37088225490452,70.51908332252604,
T8,140.05713562611177,394.49343969358677,184.65935598829446,300.3883158012585,223.17156539093278,
AF4,318.9299469720852,405.6455858791901,308.2988718820149,342.03237950842913,322.1822770071141,
AF3,314.42900289198326,414.0238315641952,290.76987148675846,188.70774142146317,261.78338381219044,
T7,277.72428086722715,1071.4534617924025,208.68481307489938,419.05733890591006,209.8619553094774,
Pz,75.9833562175307,69.88476022850593,109.0685804377459,98.37088225490452,70.51908332252604,
T8,140.05713562611177,394.49343969358677,184.65935598829446,300.3883158012585,223.17156539093278,
AF4,318.9299469720852,405.6455858791901,308.2988718820149,342.03237950842913,322.1822770071141,
AF3,314.42900289198326,414.0238315641952,290.76987148675846,188.70774142146317,261.78338381219044,
T7,277.72428086722715,1071.4534617924025,208.68481307489938,419.05733890591006,209.8619553094774,
Pz,75.9833562175307,69.88476022850593,109.0685804377459,98.37088225490452,70.51908332252604,
T8,140.05713562611177,394.49343969358677,184.65935598829446,300.3883158012585,223.17156539093278,
AF4,318.9299469720852,405.6455858791901,308.2988718820149,342.03237950842913,322.1822770071141,
AF3,314.42900289198326,414.0238315641952,290.76987148675846,188.70774142146317,261.78338381219044,
T7,277.72428086722715,1071.4534617924025,208.68481307489938,419.05733890591006,209.8619553094774,
Pz,75.9833562175307,69.88476022850593,109.0685804377459,98.37088225490452,70.51908332252604,
T8,140.05713562611177,394.49343969358677,184.65935598829446,300.3883158012585,223.17156539093278,
AF4,318.9299469720852,405.6455858791901,308.2988718820149,342.03237950842913,322.1822770071141,
AF3,314.42900289198326,414.0238315641952,290.76987148675846,188.70774142146317,261.78338381219044,
T7,277.72428086722715,1071.4534617924025,208.68481307489938,419.05733890591006,209.8619553094774,
Pz,75.9833562175307,69.88476022850593,109.0685804377459,98.37088225490452,70.51908332252604,
T8,140.05713562611177,394.49343969358677,184.65935598829446,300.3883158012585,223.17156539093278,
AF4,318.9299469720852,405.6455858791901,308.2988718820149,342.03237950842913,322.1822770071141,
AF3,314.42900289198326,414.0238315641952,290.76987148675846,188.70774142146317,261.78338381219044,
T7,277.72428086722715,1071.4534617924025,208.68481307489938,419.05733890591006,209.8619553094774,
Pz,75.9833562175307,69.88476022850593,109.0685804377459,98.37088225490452,70.51908332252604,
T8,140.05713562611177,394.49343969358677,184.65935598829446,300.3883158012585,223.17156539093278,
AF4,318.9299469720852,405.6455858791901,308.2988718820149,342.03237950842913,322.1822770071141,
AF3,314.42900289198326,414.0238315641952,290.76987148675846,188.70774142146317,261.78338381219044,
T7,277.72428086722715,1071.4534617924025,208.68481307489938,419.05733890591006,209.8619553094774,
Pz,75.9833562175307,69.88476022850593,109.0685804377459,98.37088225490452,70.51908332252604,
T8,140.05713562611177,394.49343969358677,184.65935598829446,300.3883158012585,223.17156539093278,
AF4,318.9299469720852,405.6455858791901,308.2988718820149,342.03237950842913,322.1822770071141,
AF3,314.42900289198326,414.0238315641952,290.76987148675846,188.70774142146317,261.78338381219044,
T7,277.72428086722715,1071.4534617924025,208.68481307489938,419.05733890591006,209.8619553094774,
Pz,75.9833562175307,69.88476022850593,109.0685804377459,98.37088225490452,70.51908332252604,
T8,140.05713562611177,394.49343969358677,184.65935598829446,300.3883158012585,223.17156539093278,
AF4,318.9299469720852,405.6455858791901,308.2988718820149,342.03237950842913,322.1822770071141,
AF3,314.42900289198326,414.0238315641952,290.76987148675846,188.70774142146317,261.78338381219044,
T7,277.72428086722715,1071.4534617924025,208.68481307489938,419.05733890591006,209.8619553094774,
Pz,75.9833562175307,69.88476022850593,109.0685804377459,98.37088225490452,70.51908332252604,
T8,140.05713562611177,394.49343969358677,184.65935598829446,300.3883158012585,223.17156539093278,
AF4,318.9299469720852,405.6455858791901,308.2988718820149,342.03237950842913,322.1822770071141,
AF3,314.42900289198326,414.0238315641952,290.76987148675846,188.70774142146317,261.78338381219044,
T7,277.72428086722715,1071.4534617924025,208.68481307489938,419.05733890591006,209.8619553094774,
Pz,75.9833562175307,69.88476022850593,109.0685804377459,98.37088225490452,70.51908332252604,
T8,140.05713562611177,394.49343969358677,184.65935598829446,300.3883158012585,223.17156539093278,
AF4,318.9299469720852,405.6455858791901,308.2988718820149,342.03237950842913,322.1822770071141,
AF3,314.42900289198326,414.0238315641952,290.76987148675846,188.70774142146317,261.78338381219044,
T7,277.72428086722715,1071.4534617924025,208.68481307489938,419.05733890591006,209.8619553094774,
Pz,75.9833562175307,69.88476022850593,109.0685804377459,98.37088225490452,70.51908332252604,
T8,140.05713562611177,394.49343969358677,184.65935598829446,300.3883158012585,223.17156539093278,
AF4,318.9299469720852,405.6455858791901,308.2988718820149,342.03237950842913,322.1822770071141,
AF3,314.42900289198326,414.0238315641952,290.76987148675846,188.70774142146317,261.78338381219044,
T7,277.72428086722715,1071.4534617924025,208.68481307489938,419.05733890591006,209.8619553094774,
Pz,75.9833562175307,69.88476022850593,109.0685804377459,98.37088225490452,70.51908332252604,
T8,140.05713562611177,394.49343969358677,184.65935598829446,300.3883158012585,223.17156539093278,
AF4,318.9299469720852,405.6455858791901,308.2988718820149,342.03237950842913,322.1822770071141,
AF3,314.42900289198326,414.0238315641952,290.76987148675846,188.70774142146317,261.78338381219044,
T7,277.72428086722715,1071.4534617924025,208.68481307489938,419.05733890591006,209.8619553094774,
Pz,75.9833562175307,69.88476022850593,109.0685804377459,98.37088225490452,70.51908332252604,
T8,140.05713562611177,394.49343969358677,184.65935598829446,300.3883158012585,223.17156539093278,
AF4,318.9299469720852,405.6455858791901,308.2988718820149,342.03237950842913,322.1822770071141,
AF3,314.42900289198326,414.0238315641952,290.76987148675846,188.70774142146317,261.78338381219044,
T7,277.72428086722715,1071.4534617924025,208.68481307489938,419.05733890591006,209.8619553094774,
Pz,75.9833562175307,69.88476022850593,109.0685804377459,98.37088225490452,70.51908332252604,
T8,140.05713562611177,394.49343969358677,184.65935598829446,300.3883158012585,223.17156539093278,
AF4,318.9299469720852,405.6455858791901,308.2988718820149,342.03237950842913,322.1822770071141,
AF3,314.42900289198326,414.0238315641952,290.76987148675846,188.70774142146317,261.78338381219044,
T7,277.72428086722715,1071.4534617924025,208.68481307489938,419.05733890591006,209.8619553094774,
Pz,75.9833562175307,69.88476022850593,109.0685804377459,98.37088225490452,70.51908332252604,
T8,140.05713562611177,394.49343969358677,184.65935598829446,300.3883158012585,223.17156539093278,
AF4,318.9299469720852,405.6455858791901,308.2988718820149,342.03237950842913,322.1822770071141,
AF3,314.42900289198326,414.0238315641952,290.76987148675846,188.70774142146317,261.78338381219044,
T7,277.72428086722715,1071.4534617924025,208.68481307489938,419.05733890591006,209.8619553094774,
Pz,75.9833562175307,69.88476022850593,109.0685804377459,98.37088225490452,70.51908332252604,
T8,140.05713562611177,394.49343969358677,184.65935598829446,300.3883158012585,223.17156539093278,
AF4,318.9299469720852,405.6455858791901,308.2988718820149,342.03237950842913,322.1822770071141,
AF3,314.42900289198326,414.0238315641952,290.76987148675846,188.70774142146317,261.78338381219044,
T7,277.72428086722715,1071.4534617924025,208.68481307489938,419.05733890591006,209.8619553094774,
Pz,75.9833562175307,69.88476022850593,109.0685804377459,98.37088225490452,70.51908332252604,
T8,140.05713562611177,394.49343969358677,184.65935598829446,300.3883158012585,223.17156539093278,
AF4,318.9299469720852,405.6455858791901,308.2988718820149,342.03237950842913,322.1822770071141,
AF3,314.42900289198326,414.0238315641952,290.76987148675846,188.70774142146317,261.78338381219044,
T7,277.72428086722715,1071.4534617924025,208.68481307489938,419.05733890591006,209.8619553094774,
Pz,75.9833562175307,69.88476022850593,109.0685804377459,98.37088225490452,70.51908332252604,
T8,140.05713562611177,394.49343969358677,184.65935598829446,300.3883158012585,223.17156539093278,
AF4,318.9299469720852,405.6455858791901,308.2988718820149,342.03237950842913,322.1822770071141,
AF3,314.42900289198326,414.0238315641952,290.76987148675846,188.70774142146317,261.78338381219044,
T7,277.72428086722715,1071.4534617924025,208.68481307489938,419.05733890591006,209.8619553094774,
Pz,75.9833562175307,69.88476022850593,109.0685804377459,98.37088225490452,70.51908332252604,
T8,140.05713562611177,394.49343969358677,184.65935598829446,300.3883158012585,223.17156539093278,
AF4,318.9299469720852,405.6455858791901,308.2988718820149,342.03237950842913,322.1822770071141,
AF3,314.42900289198326,414.0238315641952,290.76987148675846,188.70774142146317,261.78338381219044,
T7,277.72428086722715,1071.4534617924025,208.68481307489938,419.05733890591006,209.8619553094774,
Pz,75.9833562175307,69.88476022850593,109.0685804377459,98.37088225490452,70.51908332252604,
T8,140.05713562611177,394.49343969358677,184.65935598829446,300.3883158012585,223.17156539093278,
AF4,318.9299469720852,405.6455858791901,308.2988718820149,342.03237950842913,322.1822770071141,
AF3,314.42900289198326,414.0238315641952,290.76987148675846,188.70774142146317,261.78338381219044,
T7,277.72428086722715,1071.4534617924025,208.68481307489938,419.05733890591006,209.8619553094774,
Pz,75.9833562175307,69.88476022850593,109.0685804377459,98.37088225490452,70.51908332252604,
T8,140.05713562611177,394.49343969358677,184.65935598829446,300.3883158012585,223.17156539093278,
AF4,318.9299469720852,405.6455858791901,308.2988718820149,342.03237950842913,322.1822770071141,
AF3,314.42900289198326,414.0238315641952,290.76987148675846,188.70774142146317,261.78338381219044,
T7,277.72428086722715,1071.4534617924025,208.68481307489938,419.05733890591006,209.8619553094774,
Pz,75.9833562175307,69.88476022850593,109.0685804377459,98.37088225490452,70.51908332252604,
T8,140.05713562611177,394.49343969358677,184.65935598829446,300.3883158012585,223.17156539093278,
AF4,318.9299469720852,405.6455858791901,308.2988718820149,342.03237950842913,322.1822770071141,
AF3,314.42900289198326,414.0238315641952,290.76987148675846,188.70774142146317,261.78338381219044,
T7,277.72428086722715,1071.4534617924025,208.68481307489938,419.05733890591006,209.8619553094774,
Pz,75.9833562175307,69.88476022850593,109.0685804377459,98.37088225490452,70.51908332252604,
T8,140.05713562611177,394.49343969358677,184.65935598829446,300.3883158012585,223.17156539093278,
AF4,318.9299469720852,405.6455858791901,308.2988718820149,342.03237950842913,322.1822770071141,
AF3,314.42900289198326,414.0238315641952,290.76987148675846,188.70774142146317,261.78338381219044,
T7,277.72428086722715,1071.4534617924025,208.68481307489938,419.05733890591006,209.8619553094774,
Pz,75.9833562175307,69.88476022850593,109.0685804377459,98.37088225490452,70.51908332252604,
T8,140.05713562611177,394.49343969358677,184.65935598829446,300.3883158012585,223.17156539093278,
AF4,318.9299469720852,405.6455858791901,308.2988718820149,342.03237950842913,322.1822770071141,
AF3,314.42900289198326,414.0238315641952,290.76987148675846,188.70774142146317,261.78338381219044,
T7,277.72428086722715,1071.4534617924025,208.68481307489938,419.05733890591006,209.8619553094774,
Pz,75.9833562175307,69.88476022850593,109.0685804377459,98.37088225490452,70.51908332252604,
T8,140.05713562611177,394.49343969358677,184.65935598829446,300.3883158012585,223.17156539093278,
AF4,318.9299469720852,405.6455858791901,308.2988718820149,342.03237950842913,322.1822770071141,
AF3,314.42900289198326,414.0238315641952,290.76987148675846,188.70774142146317,261.78338381219044,
T7,277.72428086722715,1071.4534617924025,208.68481307489938,419.05733890591006,209.8619553094774,
Pz,75.9833562175307,69.88476022850593,109.0685804377459,98.37088225490452,70.51908332252604,
T8,140.05713562611177,394.49343969358677,184.65935598829446,300.3883158012585,223.17156539093278,
AF4,318.9299469720852,405.6455858791901,308.2988718820149,342.03237950842913,322.1822770071141,
AF3,314.42900289198326,414.0238315641952,290.76987148675846,188.70774142146317,261.78338381219044,
T7,277.72428086722715,1071.4534617924025,208.68481307489938,419.05733890591006,209.8619553094774,
Pz,75.9833562175307,69.88476022850593,109.0685804377459,98.37088225490452,70.51908332252604,
T8,140.05713562611177,394.49343969358677,184.65935598829446,300.3883158012585,223.17156539093278,
AF4,318.9299469720852,405.6455858791901,308.2988718820149,342.03237950842913,322.1822770071141,
AF3,314.42900289198326,414.0238315641952,290.76987148675846,188.70774142146317,261.78338381219044,
T7,277.72428086722715,1071.4534617924025,208.68481307489938,419.05733890591006,209.8619553094774,
Pz,75.9833562175307,69.88476022850593,109.0685804377459,98.37088225490452,70.51908332252604,
T8,140.05713562611177,394.49343969358677,184.65935598829446,300.3883158012585,223.17156539093278,
AF4,318.9299469720852,405.6455858791901,308.2988718820149,342.03237950842913,322.1822770071141,
AF3,314.42900289198326,414.0238315641952,290.76987148675846,188.70774142146317,261.78338381219044,
T7,277.72428086722715,1071.4534617924025,208.68481307489938,419.05733890591006,209.8619553094774,
Pz,75.9833562175307,69.88476022850593,109.0685804377459,98.37088225490452,70.51908332252604,
T8,140.05713562611177,394.49343969358677,184.65935598829446,300.3883158012585,223.17156539093278,
AF4,318.9299469720852,405.6455858791901,308.2988718820149,342.03237950842913,322.1822770071141,
AF3,314.42900289198326,414.0238315641952,290.76987148675846,188.70774142146317,261.78338381219044,
T7,277.72428086722715,1071.4534617924025,208.68481307489938,419.05733890591006,209.8619553094774,
Pz,75.9833562175307,69.88476022850593,109.0685804377459,98.37088225490452,70.51908332252604,
T8,140.05713562611177,394.49343969358677,184.65935598829446,300.3883158012585,223.17156539093278,
AF4,318.9299469720852,405.6455858791901,308.2988718820149,342.03237950842913,322.1822770071141,
AF3,314.42900289198326,414.0238315641952,290.76987148675846,188.70774142146317,261.78338381219044,
T7,277.72428086722715,1071.4534617924025,208.68481307489938,419.05733890591006,209.8619553094774,
Pz,75.9833562175307,69.88476022850593,109.0685804377459,98.37088225490452,70.51908332252604,
T8,140.05713562611177,394.49343969358677,184.65935598829446,300.3883158012585,223.17156539093278,
AF4,318.9299469720852,405.6455858791901,308.2988718820149,342.03237950842913,322.1822770071141,
AF3,314.42900289198326,414.0238315641952,290.76987148675846,188.70774142146317,261.78338381219044,
T7,277.72428086722715,1071.4534617924025,208.68481307489938,419.05733890591006,209.8619553094774,
Pz,75.9833562175307,69.88476022850593,109.0685804377459,98.37088225490452,70.51908332252604,
T8,140.05713562611177,394.49343969358677,184.65935598829446,300.3883158012585,223.17156539093278,
AF4,318.9299469720852,405.6455858791901,308.2988718820149,342.03237950842913,322.1822770071141,
AF3,314.42900289198326,414.0238315641952,290.76987148675846,188.70774142146317,261.78338381219044,
T7,277.72428086722715,1071.4534617924025,208.68481307489938,419.05733890591006,209.8619553094774,
Pz,75.9833562175307,69.88476022850593,109.0685804377459,98.37088225490452,70.51908332252604,
T8,140.05713562611177,394.49343969358677,184.65935598829446,300.3883158012585,223.17156539093278,
AF4,318.9299469720852,405.6455858791901,308.2988718820149,342.03237950842913,322.1822770071141,
AF3,314.42900289198326,414.0238315641952,290.76987148675846,188.70774142146317,261.78338381219044,
T7,277.72428086722715,1071.4534617924025,208.68481307489938,419.05733890591006,209.8619553094774,
Pz,75.9833562175307,69.88476022850593,109.0685804377459,98.37088225490452,70.51908332252604,
T8,140.05713562611177,394.49343969358677,184.65935598829446,300.3883158012585,223.17156539093278,
AF4,318.9299469720852,405.6455858791901,308.2988718820149,342.03237950842913,322.1822770071141,
AF3,314.42900289198326,414.0238315641952,290.76987148675846,188.70774142146317,261.78338381219044,
T7,277.72428086722715,1071.4534617924025,208.68481307489938,419.05733890591006,209.8619553094774,
Pz,75.9833562175307,69.88476022850593,109.0685804377459,98.37088225490452,70.51908332252604,
T8,140.05713562611177,394.49343969358677,184.65935598829446,300.3883158012585,223.17156539093278,
AF4,318.9299469720852,405.6455858791901,308.2988718820149,342.03237950842913,322.1822770071141,
AF3,314.42900289198326,414.0238315641952,290.76987148675846,188.70774142146317,261.78338381219044,
T7,277.72428086722715,1071.4534617924025,208.68481307489938,419.05733890591006,209.8619553094774,
Pz,75.9833562175307,69.88476022850593,109.0685804377459,98.37088225490452,70.51908332252604,
T8,140.05713562611177,394.49343969358677,184.65935598829446,300.3883158012585,223.17156539093278,
AF4,318.9299469720852,405.6455858791901,308.2988718820149,342.03237950842913,322.1822770071141,
AF3,314.42900289198326,414.0238315641952,290.76987148675846,188.70774142146317,261.78338381219044,
T7,277.72428086722715,1071.4534617924025,208.68481307489938,419.05733890591006,209.8619553094774,
Pz,75.9833562175307,69.88476022850593,109.0685804377459,98.37088225490452,70.51908332252604,
T8,140.05713562611177,394.49343969358677,184.65935598829446,300.3883158012585,223.17156539093278,
AF4,318.9299469720852,405.6455858791901,308.2988718820149,342.03237950842913,322.1822770071141,
AF3,314.42900289198326,414.0238315641952,290.76987148675846,188.70774142146317,261.78338381219044,
T7,277.72428086722715,1071.4534617924025,208.68481307489938,419.05733890591006,209.8619553094774,
Pz,75.9833562175307,69.88476022850593,109.0685804377459,98.37088225490452,70.51908332252604,
T8,140.05713562611177,394.49343969358677,184.65935598829446,300.3883158012585,223.17156539093278,
AF4,318.9299469720852,405.6455858791901,308.2988718820149,342.03237950842913,322.1822770071141,
AF3,314.42900289198326,414.0238315641952,290.76987148675846,188.70774142146317,261.78338381219044,
T7,277.72428086722715,1071.4534617924025,208.68481307489938,419.05733890591006,209.8619553094774,
Pz,75.9833562175307,69.88476022850593,109.0685804377459,98.37088225490452,70.51908332252604,
T8,140.05713562611177,394.49343969358677,184.65935598829446,300.3883158012585,223.17156539093278,
AF4,318.9299469720852,405.6455858791901,308.2988718820149,342.03237950842913,322.1822770071141,
AF3,314.42900289198326,414.0238315641952,290.76987148675846,188.70774142146317,261.78338381219044,
T7,277.72428086722715,1071.4534617924025,208.68481307489938,419.05733890591006,209.8619553094774,
Pz,75.9833562175307,69.88476022850593,109.0685804377459,98.37088225490452,70.51908332252604,
T8,140.05713562611177,394.49343969358677,184.65935598829446,300.3883158012585,223.17156539093278,
AF4,318.9299469720852,405.6455858791901,308.2988718820149,342.03237950842913,322.1822770071141,
AF3,314.42900289198326,414.0238315641952,290.76987148675846,188.70774142146317,261.78338381219044,
T7,277.72428086722715,1071.4534617924025,208.68481307489938,419.05733890591006,209.8619553094774,
Pz,75.9833562175307,69.88476022850593,109.0685804377459,98.37088225490452,70.51908332252604,
T8,140.05713562611177,394.49343969358677,184.65935598829446,300.3883158012585,223.17156539093278,
AF4,318.9299469720852,405.6455858791901,308.2988718820149,342.03237950842913,322.1822770071141,
AF3,314.42900289198326,414.0238315641952,290.76987148675846,188.70774142146317,261.78338381219044,
T7,277.72428086722715,1071.4534617924025,208.68481307489938,419.05733890591006,209.8619553094774,
Pz,75.9833562175307,69.88476022850593,109.0685804377459,98.37088225490452,70.51908332252604,
T8,140.05713562611177,394.49343969358677,184.65935598829446,300.3883158012585,223.17156539093278,
AF4,318.9299469720852,405.6455858791901,308.2988718820149,342.03237950842913,322.1822770071141,
AF3,314.42900289198326,414.0238315641952,290.76987148675846,188.70774142146317,261.78338381219044,
T7,277.72428086722715,1071.4534617924025,208.68481307489938,419.05733890591006,209.8619553094774,
Pz,75.9833562175307,69.88476022850593,109.0685804377459,98.37088225490452,70.51908332252604,
T8,140.05713562611177,394.49343969358677,184.65935598829446,300.3883158012585,223.17156539093278,
AF4,318.9299469720852,405.6455858791901,308.2988718820149,342.03237950842913,322.1822770071141,
AF3,345.91571097805877,529.1511279197198,204.10001663737415,284.7166018582036,212.72556431028931,
T7,632.558512350358,897.0973513319466,164.44793060539277,544.2441055014104,220.60539000544279,
Pz,156.96168095901461,50.5345268955568,45.028509711995305,121.91438993486001,67.23025629808079,
T8,531.2345348875209,461.17279704985634,264.59521039931303,236.7741871020192,266.8696044888387,
AF4,369.3826223961018,304.11781044552276,360.15957907315743,434.12734851201446,390.88499498854867,
AF3,345.91571097805877,529.1511279197198,204.10001663737415,284.7166018582036,212.72556431028931,
T7,632.558512350358,897.0973513319466,164.44793060539277,544.2441055014104,220.60539000544279,
Pz,156.96168095901461,50.5345268955568,45.028509711995305,121.91438993486001,67.23025629808079,
T8,531.2345348875209,461.17279704985634,264.59521039931303,236.7741871020192,266.8696044888387,
AF4,369.3826223961018,304.11781044552276,360.15957907315743,434.12734851201446,390.88499498854867,
AF3,345.91571097805877,529.1511279197198,204.10001663737415,284.7166018582036,212.72556431028931,
T7,632.558512350358,897.0973513319466,164.44793060539277,544.2441055014104,220.60539000544279,
Pz,156.96168095901461,50.5345268955568,45.028509711995305,121.91438993486001,67.23025629808079,
T8,531.2345348875209,461.17279704985634,264.59521039931303,236.7741871020192,266.8696044888387,
AF4,369.3826223961018,304.11781044552276,360.15957907315743,434.12734851201446,390.88499498854867,
AF3,345.91571097805877,529.1511279197198,204.10001663737415,284.7166018582036,212.72556431028931,
T7,632.558512350358,897.0973513319466,164.44793060539277,544.2441055014104,220.60539000544279,
Pz,156.96168095901461,50.5345268955568,45.028509711995305,121.91438993486001,67.23025629808079,
T8,531.2345348875209,461.17279704985634,264.59521039931303,236.7741871020192,266.8696044888387,
AF4,369.3826223961018,304.11781044552276,360.15957907315743,434.12734851201446,390.88499498854867,
AF3,345.91571097805877,529.1511279197198,204.10001663737415,284.7166018582036,212.72556431028931,
T7,632.558512350358,897.0973513319466,164.44793060539277,544.2441055014104,220.60539000544279,
Pz,156.96168095901461,50.5345268955568,45.028509711995305,121.91438993486001,67.23025629808079,
T8,531.2345348875209,461.17279704985634,264.59521039931303,236.7741871020192,266.8696044888387,
AF4,369.3826223961018,304.11781044552276,360.15957907315743,434.12734851201446,390.88499498854867,
AF3,345.91571097805877,529.1511279197198,204.10001663737415,284.7166018582036,212.72556431028931,
T7,632.558512350358,897.0973513319466,164.44793060539277,544.2441055014104,220.60539000544279,
Pz,156.96168095901461,50.5345268955568,45.028509711995305,121.91438993486001,67.23025629808079,
T8,531.2345348875209,461.17279704985634,264.59521039931303,236.7741871020192,266.8696044888387,
AF4,369.3826223961018,304.11781044552276,360.15957907315743,434.12734851201446,390.88499498854867,
AF3,345.91571097805877,529.1511279197198,204.10001663737415,284.7166018582036,212.72556431028931,
T7,632.558512350358,897.0973513319466,164.44793060539277,544.2441055014104,220.60539000544279,
Pz,156.96168095901461,50.5345268955568,45.028509711995305,121.91438993486001,67.23025629808079,
T8,531.2345348875209,461.17279704985634,264.59521039931303,236.7741871020192,266.8696044888387,
AF4,369.3826223961018,304.11781044552276,360.15957907315743,434.12734851201446,390.88499498854867,
AF3,345.91571097805877,529.1511279197198,204.10001663737415,284.7166018582036,212.72556431028931,
T7,632.558512350358,897.0973513319466,164.44793060539277,544.2441055014104,220.60539000544279,
Pz,156.96168095901461,50.5345268955568,45.028509711995305,121.91438993486001,67.23025629808079,
T8,531.2345348875209,461.17279704985634,264.59521039931303,236.7741871020192,266.8696044888387,
AF4,369.3826223961018,304.11781044552276,360.15957907315743,434.12734851201446,390.88499498854867,
AF3,345.91571097805877,529.1511279197198,204.10001663737415,284.7166018582036,212.72556431028931,
T7,632.558512350358,897.0973513319466,164.44793060539277,544.2441055014104,220.60539000544279,
Pz,156.96168095901461,50.5345268955568,45.028509711995305,121.91438993486001,67.23025629808079,
T8,531.2345348875209,461.17279704985634,264.59521039931303,236.7741871020192,266.8696044888387,
AF4,369.3826223961018,304.11781044552276,360.15957907315743,434.12734851201446,390.88499498854867,
AF3,345.91571097805877,529.1511279197198,204.10001663737415,284.7166018582036,212.72556431028931,
T7,632.558512350358,897.0973513319466,164.44793060539277,544.2441055014104,220.60539000544279,
Pz,156.96168095901461,50.5345268955568,45.028509711995305,121.91438993486001,67.23025629808079,
T8,531.2345348875209,461.17279704985634,264.59521039931303,236.7741871020192,266.8696044888387,
AF4,369.3826223961018,304.11781044552276,360.15957907315743,434.12734851201446,390.88499498854867,
AF3,345.91571097805877,529.1511279197198,204.10001663737415,284.7166018582036,212.72556431028931,
T7,632.558512350358,897.0973513319466,164.44793060539277,544.2441055014104,220.60539000544279,
Pz,156.96168095901461,50.5345268955568,45.028509711995305,121.91438993486001,67.23025629808079,
T8,531.2345348875209,461.17279704985634,264.59521039931303,236.7741871020192,266.8696044888387,
AF4,369.3826223961018,304.11781044552276,360.15957907315743,434.12734851201446,390.88499498854867,
AF3,345.91571097805877,529.1511279197198,204.10001663737415,284.7166018582036,212.72556431028931,
T7,632.558512350358,897.0973513319466,164.44793060539277,544.2441055014104,220.60539000544279,
Pz,156.96168095901461,50.5345268955568,45.028509711995305,121.91438993486001,67.23025629808079,
T8,531.2345348875209,461.17279704985634,264.59521039931303,236.7741871020192,266.8696044888387,
AF4,369.3826223961018,304.11781044552276,360.15957907315743,434.12734851201446,390.88499498854867,
AF3,345.91571097805877,529.1511279197198,204.10001663737415,284.7166018582036,212.72556431028931,
T7,632.558512350358,897.0973513319466,164.44793060539277,544.2441055014104,220.60539000544279,
Pz,156.96168095901461,50.5345268955568,45.028509711995305,121.91438993486001,67.23025629808079,
T8,531.2345348875209,461.17279704985634,264.59521039931303,236.7741871020192,266.8696044888387,
AF4,369.3826223961018,304.11781044552276,360.15957907315743,434.12734851201446,390.88499498854867,
AF3,345.91571097805877,529.1511279197198,204.10001663737415,284.7166018582036,212.72556431028931,
T7,632.558512350358,897.0973513319466,164.44793060539277,544.2441055014104,220.60539000544279,
Pz,156.96168095901461,50.5345268955568,45.028509711995305,121.91438993486001,67.23025629808079,
T8,531.2345348875209,461.17279704985634,264.59521039931303,236.7741871020192,266.8696044888387,
AF4,369.3826223961018,304.11781044552276,360.15957907315743,434.12734851201446,390.88499498854867,
AF3,345.91571097805877,529.1511279197198,204.10001663737415,284.7166018582036,212.72556431028931,
T7,632.558512350358,897.0973513319466,164.44793060539277,544.2441055014104,220.60539000544279,
Pz,156.96168095901461,50.5345268955568,45.028509711995305,121.91438993486001,67.23025629808079,
T8,531.2345348875209,461.17279704985634,264.59521039931303,236.7741871020192,266.8696044888387,
AF4,369.3826223961018,304.11781044552276,360.15957907315743,434.12734851201446,390.88499498854867,
AF3,345.91571097805877,529.1511279197198,204.10001663737415,284.7166018582036,212.72556431028931,
T7,632.558512350358,897.0973513319466,164.44793060539277,544.2441055014104,220.60539000544279,
Pz,156.96168095901461,50.5345268955568,45.028509711995305,121.91438993486001,67.23025629808079,
T8,531.2345348875209,461.17279704985634,264.59521039931303,236.7741871020192,266.8696044888387,
AF4,369.3826223961018,304.11781044552276,360.15957907315743,434.12734851201446,390.88499498854867,
AF3,345.91571097805877,529.1511279197198,204.10001663737415,284.7166018582036,212.72556431028931,
T7,632.558512350358,897.0973513319466,164.44793060539277,544.2441055014104,220.60539000544279,
Pz,156.96168095901461,50.5345268955568,45.028509711995305,121.91438993486001,67.23025629808079,
T8,531.2345348875209,461.17279704985634,264.59521039931303,236.7741871020192,266.8696044888387,
AF4,369.3826223961018,304.11781044552276,360.15957907315743,434.12734851201446,390.88499498854867,
AF3,345.91571097805877,529.1511279197198,204.10001663737415,284.7166018582036,212.72556431028931,
T7,632.558512350358,897.0973513319466,164.44793060539277,544.2441055014104,220.60539000544279,
Pz,156.96168095901461,50.5345268955568,45.028509711995305,121.91438993486001,67.23025629808079,
T8,531.2345348875209,461.17279704985634,264.59521039931303,236.7741871020192,266.8696044888387,
AF4,369.3826223961018,304.11781044552276,360.15957907315743,434.12734851201446,390.88499498854867,
AF3,345.91571097805877,529.1511279197198,204.10001663737415,284.7166018582036,212.72556431028931,
T7,632.558512350358,897.0973513319466,164.44793060539277,544.2441055014104,220.60539000544279,
Pz,156.96168095901461,50.5345268955568,45.028509711995305,121.91438993486001,67.23025629808079,
T8,531.2345348875209,461.17279704985634,264.59521039931303,236.7741871020192,266.8696044888387,
AF4,369.3826223961018,304.11781044552276,360.15957907315743,434.12734851201446,390.88499498854867,
AF3,345.91571097805877,529.1511279197198,204.10001663737415,284.7166018582036,212.72556431028931,
T7,632.558512350358,897.0973513319466,164.44793060539277,544.2441055014104,220.60539000544279,
Pz,156.96168095901461,50.5345268955568,45.028509711995305,121.91438993486001,67.23025629808079,
T8,531.2345348875209,461.17279704985634,264.59521039931303,236.7741871020192,266.8696044888387,
AF4,369.3826223961018,304.11781044552276,360.15957907315743,434.12734851201446,390.88499498854867,
AF3,345.91571097805877,529.1511279197198,204.10001663737415,284.7166018582036,212.72556431028931,
T7,632.558512350358,897.0973513319466,164.44793060539277,544.2441055014104,220.60539000544279,
Pz,156.96168095901461,50.5345268955568,45.028509711995305,121.91438993486001,67.23025629808079,
T8,531.2345348875209,461.17279704985634,264.59521039931303,236.7741871020192,266.8696044888387,
AF4,369.3826223961018,304.11781044552276,360.15957907315743,434.12734851201446,390.88499498854867,
AF3,345.91571097805877,529.1511279197198,204.10001663737415,284.7166018582036,212.72556431028931,
T7,632.558512350358,897.0973513319466,164.44793060539277,544.2441055014104,220.60539000544279,
Pz,156.96168095901461,50.5345268955568,45.028509711995305,121.91438993486001,67.23025629808079,
T8,531.2345348875209,461.17279704985634,264.59521039931303,236.7741871020192,266.8696044888387,
AF4,369.3826223961018,304.11781044552276,360.15957907315743,434.12734851201446,390.88499498854867,
AF3,345.91571097805877,529.1511279197198,204.10001663737415,284.7166018582036,212.72556431028931,
T7,632.558512350358,897.0973513319466,164.44793060539277,544.2441055014104,220.60539000544279,
Pz,156.96168095901461,50.5345268955568,45.028509711995305,121.91438993486001,67.23025629808079,
T8,531.2345348875209,461.17279704985634,264.59521039931303,236.7741871020192,266.8696044888387,
AF4,369.3826223961018,304.11781044552276,360.15957907315743,434.12734851201446,390.88499498854867,
AF3,345.91571097805877,529.1511279197198,204.10001663737415,284.7166018582036,212.72556431028931,
T7,632.558512350358,897.0973513319466,164.44793060539277,544.2441055014104,220.60539000544279,
Pz,156.96168095901461,50.5345268955568,45.028509711995305,121.91438993486001,67.23025629808079,
T8,531.2345348875209,461.17279704985634,264.59521039931303,236.7741871020192,266.8696044888387,
AF4,369.3826223961018,304.11781044552276,360.15957907315743,434.12734851201446,390.88499498854867,
AF3,345.91571097805877,529.1511279197198,204.10001663737415,284.7166018582036,212.72556431028931,
T7,632.558512350358,897.0973513319466,164.44793060539277,544.2441055014104,220.60539000544279,
Pz,156.96168095901461,50.5345268955568,45.028509711995305,121.91438993486001,67.23025629808079,
T8,531.2345348875209,461.17279704985634,264.59521039931303,236.7741871020192,266.8696044888387,
AF4,369.3826223961018,304.11781044552276,360.15957907315743,434.12734851201446,390.88499498854867,
AF3,345.91571097805877,529.1511279197198,204.10001663737415,284.7166018582036,212.72556431028931,
T7,632.558512350358,897.0973513319466,164.44793060539277,544.2441055014104,220.60539000544279,
Pz,156.96168095901461,50.5345268955568,45.028509711995305,121.91438993486001,67.23025629808079,
T8,531.2345348875209,461.17279704985634,264.59521039931303,236.7741871020192,266.8696044888387,
AF4,369.3826223961018,304.11781044552276,360.15957907315743,434.12734851201446,390.88499498854867,
AF3,345.91571097805877,529.1511279197198,204.10001663737415,284.7166018582036,212.72556431028931,
T7,632.558512350358,897.0973513319466,164.44793060539277,544.2441055014104,220.60539000544279,
Pz,156.96168095901461,50.5345268955568,45.028509711995305,121.91438993486001,67.23025629808079,
T8,531.2345348875209,461.17279704985634,264.59521039931303,236.7741871020192,266.8696044888387,
