Channel , Theta ,Alpha ,Low beta ,High beta , Gamma 
AF3,227.33705608926454,131.02075080050793,897.459468368547,157.6691200465715,465.51583862265994,
T7,735.0730452875088,309.0302967948079,1170.1092279278198,184.90085201247877,567.7339771373531,
Pz,132.71139347176796,93.30362225914989,137.73204302816274,113.79315456493295,202.68409339324774,
T8,293.5974106861174,660.6492775796452,630.1714312353571,277.748129820927,382.75979576254383,
AF4,641.7100452194202,208.44763386034495,531.6146644768698,301.7917930128411,335.90256722117556,
AF3,227.33705608926454,131.02075080050793,897.459468368547,157.6691200465715,465.51583862265994,
T7,735.0730452875088,309.0302967948079,1170.1092279278198,184.90085201247877,567.7339771373531,
Pz,132.71139347176796,93.30362225914989,137.73204302816274,113.79315456493295,202.68409339324774,
T8,293.5974106861174,660.6492775796452,630.1714312353571,277.748129820927,382.75979576254383,
AF4,641.7100452194202,208.44763386034495,531.6146644768698,301.7917930128411,335.90256722117556,
AF3,227.33705608926454,131.02075080050793,897.459468368547,157.6691200465715,465.51583862265994,
T7,735.0730452875088,309.0302967948079,1170.1092279278198,184.90085201247877,567.7339771373531,
Pz,132.71139347176796,93.30362225914989,137.73204302816274,113.79315456493295,202.68409339324774,
T8,293.5974106861174,660.6492775796452,630.1714312353571,277.748129820927,382.75979576254383,
AF4,641.7100452194202,208.44763386034495,531.6146644768698,301.7917930128411,335.90256722117556,
AF3,227.33705608926454,131.02075080050793,897.459468368547,157.6691200465715,465.51583862265994,
T7,735.0730452875088,309.0302967948079,1170.1092279278198,184.90085201247877,567.7339771373531,
Pz,132.71139347176796,93.30362225914989,137.73204302816274,113.79315456493295,202.68409339324774,
T8,293.5974106861174,660.6492775796452,630.1714312353571,277.748129820927,382.75979576254383,
AF4,641.7100452194202,208.44763386034495,531.6146644768698,301.7917930128411,335.90256722117556,
AF3,227.33705608926454,131.02075080050793,897.459468368547,157.6691200465715,465.51583862265994,
T7,735.0730452875088,309.0302967948079,1170.1092279278198,184.90085201247877,567.7339771373531,
Pz,132.71139347176796,93.30362225914989,137.73204302816274,113.79315456493295,202.68409339324774,
T8,293.5974106861174,660.6492775796452,630.1714312353571,277.748129820927,382.75979576254383,
AF4,641.7100452194202,208.44763386034495,531.6146644768698,301.7917930128411,335.90256722117556,
AF3,227.33705608926454,131.02075080050793,897.459468368547,157.6691200465715,465.51583862265994,
T7,735.0730452875088,309.0302967948079,1170.1092279278198,184.90085201247877,567.7339771373531,
Pz,132.71139347176796,93.30362225914989,137.73204302816274,113.79315456493295,202.68409339324774,
T8,293.5974106861174,660.6492775796452,630.1714312353571,277.748129820927,382.75979576254383,
AF4,641.7100452194202,208.44763386034495,531.6146644768698,301.7917930128411,335.90256722117556,
AF3,227.33705608926454,131.02075080050793,897.459468368547,157.6691200465715,465.51583862265994,
T7,735.0730452875088,309.0302967948079,1170.1092279278198,184.90085201247877,567.7339771373531,
Pz,132.71139347176796,93.30362225914989,137.73204302816274,113.79315456493295,202.68409339324774,
T8,293.5974106861174,660.6492775796452,630.1714312353571,277.748129820927,382.75979576254383,
AF4,641.7100452194202,208.44763386034495,531.6146644768698,301.7917930128411,335.90256722117556,
AF3,227.33705608926454,131.02075080050793,897.459468368547,157.6691200465715,465.51583862265994,
T7,735.0730452875088,309.0302967948079,1170.1092279278198,184.90085201247877,567.7339771373531,
Pz,132.71139347176796,93.30362225914989,137.73204302816274,113.79315456493295,202.68409339324774,
T8,293.5974106861174,660.6492775796452,630.1714312353571,277.748129820927,382.75979576254383,
AF4,641.7100452194202,208.44763386034495,531.6146644768698,301.7917930128411,335.90256722117556,
AF3,227.33705608926454,131.02075080050793,897.459468368547,157.6691200465715,465.51583862265994,
T7,735.0730452875088,309.0302967948079,1170.1092279278198,184.90085201247877,567.7339771373531,
Pz,132.71139347176796,93.30362225914989,137.73204302816274,113.79315456493295,202.68409339324774,
T8,293.5974106861174,660.6492775796452,630.1714312353571,277.748129820927,382.75979576254383,
AF4,641.7100452194202,208.44763386034495,531.6146644768698,301.7917930128411,335.90256722117556,
AF3,227.33705608926454,131.02075080050793,897.459468368547,157.6691200465715,465.51583862265994,
T7,735.0730452875088,309.0302967948079,1170.1092279278198,184.90085201247877,567.7339771373531,
Pz,132.71139347176796,93.30362225914989,137.73204302816274,113.79315456493295,202.68409339324774,
T8,293.5974106861174,660.6492775796452,630.1714312353571,277.748129820927,382.75979576254383,
AF4,641.7100452194202,208.44763386034495,531.6146644768698,301.7917930128411,335.90256722117556,
AF3,227.33705608926454,131.02075080050793,897.459468368547,157.6691200465715,465.51583862265994,
T7,735.0730452875088,309.0302967948079,1170.1092279278198,184.90085201247877,567.7339771373531,
Pz,132.71139347176796,93.30362225914989,137.73204302816274,113.79315456493295,202.68409339324774,
T8,293.5974106861174,660.6492775796452,630.1714312353571,277.748129820927,382.75979576254383,
AF4,641.7100452194202,208.44763386034495,531.6146644768698,301.7917930128411,335.90256722117556,
AF3,227.33705608926454,131.02075080050793,897.459468368547,157.6691200465715,465.51583862265994,
T7,735.0730452875088,309.0302967948079,1170.1092279278198,184.90085201247877,567.7339771373531,
Pz,132.71139347176796,93.30362225914989,137.73204302816274,113.79315456493295,202.68409339324774,
T8,293.5974106861174,660.6492775796452,630.1714312353571,277.748129820927,382.75979576254383,
AF4,641.7100452194202,208.44763386034495,531.6146644768698,301.7917930128411,335.90256722117556,
AF3,227.33705608926454,131.02075080050793,897.459468368547,157.6691200465715,465.51583862265994,
T7,735.0730452875088,309.0302967948079,1170.1092279278198,184.90085201247877,567.7339771373531,
Pz,132.71139347176796,93.30362225914989,137.73204302816274,113.79315456493295,202.68409339324774,
T8,293.5974106861174,660.6492775796452,630.1714312353571,277.748129820927,382.75979576254383,
AF4,641.7100452194202,208.44763386034495,531.6146644768698,301.7917930128411,335.90256722117556,
AF3,227.33705608926454,131.02075080050793,897.459468368547,157.6691200465715,465.51583862265994,
T7,735.0730452875088,309.0302967948079,1170.1092279278198,184.90085201247877,567.7339771373531,
Pz,132.71139347176796,93.30362225914989,137.73204302816274,113.79315456493295,202.68409339324774,
T8,293.5974106861174,660.6492775796452,630.1714312353571,277.748129820927,382.75979576254383,
AF4,641.7100452194202,208.44763386034495,531.6146644768698,301.7917930128411,335.90256722117556,
AF3,227.33705608926454,131.02075080050793,897.459468368547,157.6691200465715,465.51583862265994,
T7,735.0730452875088,309.0302967948079,1170.1092279278198,184.90085201247877,567.7339771373531,
Pz,132.71139347176796,93.30362225914989,137.73204302816274,113.79315456493295,202.68409339324774,
T8,293.5974106861174,660.6492775796452,630.1714312353571,277.748129820927,382.75979576254383,
AF4,641.7100452194202,208.44763386034495,531.6146644768698,301.7917930128411,335.90256722117556,
AF3,227.33705608926454,131.02075080050793,897.459468368547,157.6691200465715,465.51583862265994,
T7,735.0730452875088,309.0302967948079,1170.1092279278198,184.90085201247877,567.7339771373531,
Pz,132.71139347176796,93.30362225914989,137.73204302816274,113.79315456493295,202.68409339324774,
T8,293.5974106861174,660.6492775796452,630.1714312353571,277.748129820927,382.75979576254383,
AF4,641.7100452194202,208.44763386034495,531.6146644768698,301.7917930128411,335.90256722117556,
AF3,227.33705608926454,131.02075080050793,897.459468368547,157.6691200465715,465.51583862265994,
T7,735.0730452875088,309.0302967948079,1170.1092279278198,184.90085201247877,567.7339771373531,
Pz,132.71139347176796,93.30362225914989,137.73204302816274,113.79315456493295,202.68409339324774,
T8,293.5974106861174,660.6492775796452,630.1714312353571,277.748129820927,382.75979576254383,
AF4,641.7100452194202,208.44763386034495,531.6146644768698,301.7917930128411,335.90256722117556,
AF3,227.33705608926454,131.02075080050793,897.459468368547,157.6691200465715,465.51583862265994,
T7,735.0730452875088,309.0302967948079,1170.1092279278198,184.90085201247877,567.7339771373531,
Pz,132.71139347176796,93.30362225914989,137.73204302816274,113.79315456493295,202.68409339324774,
T8,293.5974106861174,660.6492775796452,630.1714312353571,277.748129820927,382.75979576254383,
AF4,641.7100452194202,208.44763386034495,531.6146644768698,301.7917930128411,335.90256722117556,
AF3,227.33705608926454,131.02075080050793,897.459468368547,157.6691200465715,465.51583862265994,
T7,735.0730452875088,309.0302967948079,1170.1092279278198,184.90085201247877,567.7339771373531,
Pz,132.71139347176796,93.30362225914989,137.73204302816274,113.79315456493295,202.68409339324774,
T8,293.5974106861174,660.6492775796452,630.1714312353571,277.748129820927,382.75979576254383,
AF4,641.7100452194202,208.44763386034495,531.6146644768698,301.7917930128411,335.90256722117556,
AF3,227.33705608926454,131.02075080050793,897.459468368547,157.6691200465715,465.51583862265994,
T7,735.0730452875088,309.0302967948079,1170.1092279278198,184.90085201247877,567.7339771373531,
Pz,132.71139347176796,93.30362225914989,137.73204302816274,113.79315456493295,202.68409339324774,
T8,293.5974106861174,660.6492775796452,630.1714312353571,277.748129820927,382.75979576254383,
AF4,641.7100452194202,208.44763386034495,531.6146644768698,301.7917930128411,335.90256722117556,
AF3,227.33705608926454,131.02075080050793,897.459468368547,157.6691200465715,465.51583862265994,
T7,735.0730452875088,309.0302967948079,1170.1092279278198,184.90085201247877,567.7339771373531,
Pz,132.71139347176796,93.30362225914989,137.73204302816274,113.79315456493295,202.68409339324774,
T8,293.5974106861174,660.6492775796452,630.1714312353571,277.748129820927,382.75979576254383,
AF4,641.7100452194202,208.44763386034495,531.6146644768698,301.7917930128411,335.90256722117556,
AF3,227.33705608926454,131.02075080050793,897.459468368547,157.6691200465715,465.51583862265994,
T7,735.0730452875088,309.0302967948079,1170.1092279278198,184.90085201247877,567.7339771373531,
Pz,132.71139347176796,93.30362225914989,137.73204302816274,113.79315456493295,202.68409339324774,
T8,293.5974106861174,660.6492775796452,630.1714312353571,277.748129820927,382.75979576254383,
AF4,641.7100452194202,208.44763386034495,531.6146644768698,301.7917930128411,335.90256722117556,
AF3,227.33705608926454,131.02075080050793,897.459468368547,157.6691200465715,465.51583862265994,
T7,735.0730452875088,309.0302967948079,1170.1092279278198,184.90085201247877,567.7339771373531,
Pz,132.71139347176796,93.30362225914989,137.73204302816274,113.79315456493295,202.68409339324774,
T8,293.5974106861174,660.6492775796452,630.1714312353571,277.748129820927,382.75979576254383,
AF4,641.7100452194202,208.44763386034495,531.6146644768698,301.7917930128411,335.90256722117556,
AF3,227.33705608926454,131.02075080050793,897.459468368547,157.6691200465715,465.51583862265994,
T7,735.0730452875088,309.0302967948079,1170.1092279278198,184.90085201247877,567.7339771373531,
Pz,132.71139347176796,93.30362225914989,137.73204302816274,113.79315456493295,202.68409339324774,
T8,293.5974106861174,660.6492775796452,630.1714312353571,277.748129820927,382.75979576254383,
AF4,641.7100452194202,208.44763386034495,531.6146644768698,301.7917930128411,335.90256722117556,
AF3,227.33705608926454,131.02075080050793,897.459468368547,157.6691200465715,465.51583862265994,
T7,735.0730452875088,309.0302967948079,1170.1092279278198,184.90085201247877,567.7339771373531,
Pz,132.71139347176796,93.30362225914989,137.73204302816274,113.79315456493295,202.68409339324774,
T8,293.5974106861174,660.6492775796452,630.1714312353571,277.748129820927,382.75979576254383,
AF4,641.7100452194202,208.44763386034495,531.6146644768698,301.7917930128411,335.90256722117556,
AF3,227.33705608926454,131.02075080050793,897.459468368547,157.6691200465715,465.51583862265994,
T7,735.0730452875088,309.0302967948079,1170.1092279278198,184.90085201247877,567.7339771373531,
Pz,132.71139347176796,93.30362225914989,137.73204302816274,113.79315456493295,202.68409339324774,
T8,293.5974106861174,660.6492775796452,630.1714312353571,277.748129820927,382.75979576254383,
AF4,641.7100452194202,208.44763386034495,531.6146644768698,301.7917930128411,335.90256722117556,
AF3,227.33705608926454,131.02075080050793,897.459468368547,157.6691200465715,465.51583862265994,
T7,735.0730452875088,309.0302967948079,1170.1092279278198,184.90085201247877,567.7339771373531,
Pz,132.71139347176796,93.30362225914989,137.73204302816274,113.79315456493295,202.68409339324774,
T8,293.5974106861174,660.6492775796452,630.1714312353571,277.748129820927,382.75979576254383,
AF4,641.7100452194202,208.44763386034495,531.6146644768698,301.7917930128411,335.90256722117556,
AF3,227.33705608926454,131.02075080050793,897.459468368547,157.6691200465715,465.51583862265994,
T7,735.0730452875088,309.0302967948079,1170.1092279278198,184.90085201247877,567.7339771373531,
Pz,132.71139347176796,93.30362225914989,137.73204302816274,113.79315456493295,202.68409339324774,
T8,293.5974106861174,660.6492775796452,630.1714312353571,277.748129820927,382.75979576254383,
AF4,641.7100452194202,208.44763386034495,531.6146644768698,301.7917930128411,335.90256722117556,
AF3,317.58004428279605,483.6066686518321,609.7163811136867,203.31860757340465,375.80121662590307,
T7,616.5254891953545,512.1148715693621,568.2679460388962,375.1837446024434,448.64316253031575,
Pz,158.3590496164546,123.58714079386861,210.7331033013669,143.22688808294362,186.10963105154593,
T8,359.19755494825836,347.81465192252597,421.1993803128437,459.4610303346024,348.29646753835084,
AF4,468.13898311408553,320.2877187504189,690.2038389514365,172.92339496296543,242.7544739400986,
AF3,317.58004428279605,483.6066686518321,609.7163811136867,203.31860757340465,375.80121662590307,
T7,616.5254891953545,512.1148715693621,568.2679460388962,375.1837446024434,448.64316253031575,
Pz,158.3590496164546,123.58714079386861,210.7331033013669,143.22688808294362,186.10963105154593,
T8,359.19755494825836,347.81465192252597,421.1993803128437,459.4610303346024,348.29646753835084,
AF4,468.13898311408553,320.2877187504189,690.2038389514365,172.92339496296543,242.7544739400986,
AF3,317.58004428279605,483.6066686518321,609.7163811136867,203.31860757340465,375.80121662590307,
T7,616.5254891953545,512.1148715693621,568.2679460388962,375.1837446024434,448.64316253031575,
Pz,158.3590496164546,123.58714079386861,210.7331033013669,143.22688808294362,186.10963105154593,
T8,359.19755494825836,347.81465192252597,421.1993803128437,459.4610303346024,348.29646753835084,
AF4,468.13898311408553,320.2877187504189,690.2038389514365,172.92339496296543,242.7544739400986,
AF3,317.58004428279605,483.6066686518321,609.7163811136867,203.31860757340465,375.80121662590307,
T7,616.5254891953545,512.1148715693621,568.2679460388962,375.1837446024434,448.64316253031575,
Pz,158.3590496164546,123.58714079386861,210.7331033013669,143.22688808294362,186.10963105154593,
T8,359.19755494825836,347.81465192252597,421.1993803128437,459.4610303346024,348.29646753835084,
AF4,468.13898311408553,320.2877187504189,690.2038389514365,172.92339496296543,242.7544739400986,
AF3,317.58004428279605,483.6066686518321,609.7163811136867,203.31860757340465,375.80121662590307,
T7,616.5254891953545,512.1148715693621,568.2679460388962,375.1837446024434,448.64316253031575,
Pz,158.3590496164546,123.58714079386861,210.7331033013669,143.22688808294362,186.10963105154593,
T8,359.19755494825836,347.81465192252597,421.1993803128437,459.4610303346024,348.29646753835084,
AF4,468.13898311408553,320.2877187504189,690.2038389514365,172.92339496296543,242.7544739400986,
AF3,317.58004428279605,483.6066686518321,609.7163811136867,203.31860757340465,375.80121662590307,
T7,616.5254891953545,512.1148715693621,568.2679460388962,375.1837446024434,448.64316253031575,
Pz,158.3590496164546,123.58714079386861,210.7331033013669,143.22688808294362,186.10963105154593,
T8,359.19755494825836,347.81465192252597,421.1993803128437,459.4610303346024,348.29646753835084,
AF4,468.13898311408553,320.2877187504189,690.2038389514365,172.92339496296543,242.7544739400986,
AF3,317.58004428279605,483.6066686518321,609.7163811136867,203.31860757340465,375.80121662590307,
T7,616.5254891953545,512.1148715693621,568.2679460388962,375.1837446024434,448.64316253031575,
Pz,158.3590496164546,123.58714079386861,210.7331033013669,143.22688808294362,186.10963105154593,
T8,359.19755494825836,347.81465192252597,421.1993803128437,459.4610303346024,348.29646753835084,
AF4,468.13898311408553,320.2877187504189,690.2038389514365,172.92339496296543,242.7544739400986,
AF3,317.58004428279605,483.6066686518321,609.7163811136867,203.31860757340465,375.80121662590307,
T7,616.5254891953545,512.1148715693621,568.2679460388962,375.1837446024434,448.64316253031575,
Pz,158.3590496164546,123.58714079386861,210.7331033013669,143.22688808294362,186.10963105154593,
T8,359.19755494825836,347.81465192252597,421.1993803128437,459.4610303346024,348.29646753835084,
AF4,468.13898311408553,320.2877187504189,690.2038389514365,172.92339496296543,242.7544739400986,
AF3,317.58004428279605,483.6066686518321,609.7163811136867,203.31860757340465,375.80121662590307,
T7,616.5254891953545,512.1148715693621,568.2679460388962,375.1837446024434,448.64316253031575,
Pz,158.3590496164546,123.58714079386861,210.7331033013669,143.22688808294362,186.10963105154593,
T8,359.19755494825836,347.81465192252597,421.1993803128437,459.4610303346024,348.29646753835084,
AF4,468.13898311408553,320.2877187504189,690.2038389514365,172.92339496296543,242.7544739400986,
AF3,317.58004428279605,483.6066686518321,609.7163811136867,203.31860757340465,375.80121662590307,
T7,616.5254891953545,512.1148715693621,568.2679460388962,375.1837446024434,448.64316253031575,
Pz,158.3590496164546,123.58714079386861,210.7331033013669,143.22688808294362,186.10963105154593,
T8,359.19755494825836,347.81465192252597,421.1993803128437,459.4610303346024,348.29646753835084,
AF4,468.13898311408553,320.2877187504189,690.2038389514365,172.92339496296543,242.7544739400986,
AF3,317.58004428279605,483.6066686518321,609.7163811136867,203.31860757340465,375.80121662590307,
T7,616.5254891953545,512.1148715693621,568.2679460388962,375.1837446024434,448.64316253031575,
Pz,158.3590496164546,123.58714079386861,210.7331033013669,143.22688808294362,186.10963105154593,
T8,359.19755494825836,347.81465192252597,421.1993803128437,459.4610303346024,348.29646753835084,
AF4,468.13898311408553,320.2877187504189,690.2038389514365,172.92339496296543,242.7544739400986,
AF3,317.58004428279605,483.6066686518321,609.7163811136867,203.31860757340465,375.80121662590307,
T7,616.5254891953545,512.1148715693621,568.2679460388962,375.1837446024434,448.64316253031575,
Pz,158.3590496164546,123.58714079386861,210.7331033013669,143.22688808294362,186.10963105154593,
T8,359.19755494825836,347.81465192252597,421.1993803128437,459.4610303346024,348.29646753835084,
AF4,468.13898311408553,320.2877187504189,690.2038389514365,172.92339496296543,242.7544739400986,
AF3,317.58004428279605,483.6066686518321,609.7163811136867,203.31860757340465,375.80121662590307,
T7,616.5254891953545,512.1148715693621,568.2679460388962,375.1837446024434,448.64316253031575,
Pz,158.3590496164546,123.58714079386861,210.7331033013669,143.22688808294362,186.10963105154593,
T8,359.19755494825836,347.81465192252597,421.1993803128437,459.4610303346024,348.29646753835084,
AF4,468.13898311408553,320.2877187504189,690.2038389514365,172.92339496296543,242.7544739400986,
AF3,317.58004428279605,483.6066686518321,609.7163811136867,203.31860757340465,375.80121662590307,
T7,616.5254891953545,512.1148715693621,568.2679460388962,375.1837446024434,448.64316253031575,
Pz,158.3590496164546,123.58714079386861,210.7331033013669,143.22688808294362,186.10963105154593,
T8,359.19755494825836,347.81465192252597,421.1993803128437,459.4610303346024,348.29646753835084,
AF4,468.13898311408553,320.2877187504189,690.2038389514365,172.92339496296543,242.7544739400986,
AF3,317.58004428279605,483.6066686518321,609.7163811136867,203.31860757340465,375.80121662590307,
T7,616.5254891953545,512.1148715693621,568.2679460388962,375.1837446024434,448.64316253031575,
Pz,158.3590496164546,123.58714079386861,210.7331033013669,143.22688808294362,186.10963105154593,
T8,359.19755494825836,347.81465192252597,421.1993803128437,459.4610303346024,348.29646753835084,
AF4,468.13898311408553,320.2877187504189,690.2038389514365,172.92339496296543,242.7544739400986,
AF3,317.58004428279605,483.6066686518321,609.7163811136867,203.31860757340465,375.80121662590307,
T7,616.5254891953545,512.1148715693621,568.2679460388962,375.1837446024434,448.64316253031575,
Pz,158.3590496164546,123.58714079386861,210.7331033013669,143.22688808294362,186.10963105154593,
T8,359.19755494825836,347.81465192252597,421.1993803128437,459.4610303346024,348.29646753835084,
AF4,468.13898311408553,320.2877187504189,690.2038389514365,172.92339496296543,242.7544739400986,
AF3,317.58004428279605,483.6066686518321,609.7163811136867,203.31860757340465,375.80121662590307,
T7,616.5254891953545,512.1148715693621,568.2679460388962,375.1837446024434,448.64316253031575,
Pz,158.3590496164546,123.58714079386861,210.7331033013669,143.22688808294362,186.10963105154593,
T8,359.19755494825836,347.81465192252597,421.1993803128437,459.4610303346024,348.29646753835084,
AF4,468.13898311408553,320.2877187504189,690.2038389514365,172.92339496296543,242.7544739400986,
AF3,317.58004428279605,483.6066686518321,609.7163811136867,203.31860757340465,375.80121662590307,
T7,616.5254891953545,512.1148715693621,568.2679460388962,375.1837446024434,448.64316253031575,
Pz,158.3590496164546,123.58714079386861,210.7331033013669,143.22688808294362,186.10963105154593,
T8,359.19755494825836,347.81465192252597,421.1993803128437,459.4610303346024,348.29646753835084,
AF4,468.13898311408553,320.2877187504189,690.2038389514365,172.92339496296543,242.7544739400986,
AF3,317.58004428279605,483.6066686518321,609.7163811136867,203.31860757340465,375.80121662590307,
T7,616.5254891953545,512.1148715693621,568.2679460388962,375.1837446024434,448.64316253031575,
Pz,158.3590496164546,123.58714079386861,210.7331033013669,143.22688808294362,186.10963105154593,
T8,359.19755494825836,347.81465192252597,421.1993803128437,459.4610303346024,348.29646753835084,
AF4,468.13898311408553,320.2877187504189,690.2038389514365,172.92339496296543,242.7544739400986,
AF3,317.58004428279605,483.6066686518321,609.7163811136867,203.31860757340465,375.80121662590307,
T7,616.5254891953545,512.1148715693621,568.2679460388962,375.1837446024434,448.64316253031575,
Pz,158.3590496164546,123.58714079386861,210.7331033013669,143.22688808294362,186.10963105154593,
T8,359.19755494825836,347.81465192252597,421.1993803128437,459.4610303346024,348.29646753835084,
AF4,468.13898311408553,320.2877187504189,690.2038389514365,172.92339496296543,242.7544739400986,
AF3,317.58004428279605,483.6066686518321,609.7163811136867,203.31860757340465,375.80121662590307,
T7,616.5254891953545,512.1148715693621,568.2679460388962,375.1837446024434,448.64316253031575,
Pz,158.3590496164546,123.58714079386861,210.7331033013669,143.22688808294362,186.10963105154593,
T8,359.19755494825836,347.81465192252597,421.1993803128437,459.4610303346024,348.29646753835084,
AF4,468.13898311408553,320.2877187504189,690.2038389514365,172.92339496296543,242.7544739400986,
AF3,317.58004428279605,483.6066686518321,609.7163811136867,203.31860757340465,375.80121662590307,
T7,616.5254891953545,512.1148715693621,568.2679460388962,375.1837446024434,448.64316253031575,
Pz,158.3590496164546,123.58714079386861,210.7331033013669,143.22688808294362,186.10963105154593,
T8,359.19755494825836,347.81465192252597,421.1993803128437,459.4610303346024,348.29646753835084,
AF4,468.13898311408553,320.2877187504189,690.2038389514365,172.92339496296543,242.7544739400986,
AF3,317.58004428279605,483.6066686518321,609.7163811136867,203.31860757340465,375.80121662590307,
T7,616.5254891953545,512.1148715693621,568.2679460388962,375.1837446024434,448.64316253031575,
Pz,158.3590496164546,123.58714079386861,210.7331033013669,143.22688808294362,186.10963105154593,
T8,359.19755494825836,347.81465192252597,421.1993803128437,459.4610303346024,348.29646753835084,
AF4,468.13898311408553,320.2877187504189,690.2038389514365,172.92339496296543,242.7544739400986,
AF3,317.58004428279605,483.6066686518321,609.7163811136867,203.31860757340465,375.80121662590307,
T7,616.5254891953545,512.1148715693621,568.2679460388962,375.1837446024434,448.64316253031575,
Pz,158.3590496164546,123.58714079386861,210.7331033013669,143.22688808294362,186.10963105154593,
T8,359.19755494825836,347.81465192252597,421.1993803128437,459.4610303346024,348.29646753835084,
AF4,468.13898311408553,320.2877187504189,690.2038389514365,172.92339496296543,242.7544739400986,
AF3,317.58004428279605,483.6066686518321,609.7163811136867,203.31860757340465,375.80121662590307,
T7,616.5254891953545,512.1148715693621,568.2679460388962,375.1837446024434,448.64316253031575,
Pz,158.3590496164546,123.58714079386861,210.7331033013669,143.22688808294362,186.10963105154593,
T8,359.19755494825836,347.81465192252597,421.1993803128437,459.4610303346024,348.29646753835084,
AF4,468.13898311408553,320.2877187504189,690.2038389514365,172.92339496296543,242.7544739400986,
AF3,317.58004428279605,483.6066686518321,609.7163811136867,203.31860757340465,375.80121662590307,
T7,616.5254891953545,512.1148715693621,568.2679460388962,375.1837446024434,448.64316253031575,
Pz,158.3590496164546,123.58714079386861,210.7331033013669,143.22688808294362,186.10963105154593,
T8,359.19755494825836,347.81465192252597,421.1993803128437,459.4610303346024,348.29646753835084,
AF4,468.13898311408553,320.2877187504189,690.2038389514365,172.92339496296543,242.7544739400986,
AF3,317.58004428279605,483.6066686518321,609.7163811136867,203.31860757340465,375.80121662590307,
T7,616.5254891953545,512.1148715693621,568.2679460388962,375.1837446024434,448.64316253031575,
Pz,158.3590496164546,123.58714079386861,210.7331033013669,143.22688808294362,186.10963105154593,
T8,359.19755494825836,347.81465192252597,421.1993803128437,459.4610303346024,348.29646753835084,
AF4,468.13898311408553,320.2877187504189,690.2038389514365,172.92339496296543,242.7544739400986,
AF3,317.58004428279605,483.6066686518321,609.7163811136867,203.31860757340465,375.80121662590307,
T7,616.5254891953545,512.1148715693621,568.2679460388962,375.1837446024434,448.64316253031575,
Pz,158.3590496164546,123.58714079386861,210.7331033013669,143.22688808294362,186.10963105154593,
T8,359.19755494825836,347.81465192252597,421.1993803128437,459.4610303346024,348.29646753835084,
AF4,468.13898311408553,320.2877187504189,690.2038389514365,172.92339496296543,242.7544739400986,
AF3,317.58004428279605,483.6066686518321,609.7163811136867,203.31860757340465,375.80121662590307,
T7,616.5254891953545,512.1148715693621,568.2679460388962,375.1837446024434,448.64316253031575,
Pz,158.3590496164546,123.58714079386861,210.7331033013669,143.22688808294362,186.10963105154593,
T8,359.19755494825836,347.81465192252597,421.1993803128437,459.4610303346024,348.29646753835084,
AF4,468.13898311408553,320.2877187504189,690.2038389514365,172.92339496296543,242.7544739400986,
AF3,317.58004428279605,483.6066686518321,609.7163811136867,203.31860757340465,375.80121662590307,
T7,616.5254891953545,512.1148715693621,568.2679460388962,375.1837446024434,448.64316253031575,
Pz,158.3590496164546,123.58714079386861,210.7331033013669,143.22688808294362,186.10963105154593,
T8,359.19755494825836,347.81465192252597,421.1993803128437,459.4610303346024,348.29646753835084,
AF4,468.13898311408553,320.2877187504189,690.2038389514365,172.92339496296543,242.7544739400986,
AF3,317.58004428279605,483.6066686518321,609.7163811136867,203.31860757340465,375.80121662590307,
T7,616.5254891953545,512.1148715693621,568.2679460388962,375.1837446024434,448.64316253031575,
Pz,158.3590496164546,123.58714079386861,210.7331033013669,143.22688808294362,186.10963105154593,
T8,359.19755494825836,347.81465192252597,421.1993803128437,459.4610303346024,348.29646753835084,
AF4,468.13898311408553,320.2877187504189,690.2038389514365,172.92339496296543,242.7544739400986,
AF3,317.58004428279605,483.6066686518321,609.7163811136867,203.31860757340465,375.80121662590307,
T7,616.5254891953545,512.1148715693621,568.2679460388962,375.1837446024434,448.64316253031575,
Pz,158.3590496164546,123.58714079386861,210.7331033013669,143.22688808294362,186.10963105154593,
T8,359.19755494825836,347.81465192252597,421.1993803128437,459.4610303346024,348.29646753835084,
AF4,468.13898311408553,320.2877187504189,690.2038389514365,172.92339496296543,242.7544739400986,
AF3,317.58004428279605,483.6066686518321,609.7163811136867,203.31860757340465,375.80121662590307,
T7,616.5254891953545,512.1148715693621,568.2679460388962,375.1837446024434,448.64316253031575,
Pz,158.3590496164546,123.58714079386861,210.7331033013669,143.22688808294362,186.10963105154593,
T8,359.19755494825836,347.81465192252597,421.1993803128437,459.4610303346024,348.29646753835084,
AF4,468.13898311408553,320.2877187504189,690.2038389514365,172.92339496296543,242.7544739400986,
AF3,317.58004428279605,483.6066686518321,609.7163811136867,203.31860757340465,375.80121662590307,
T7,616.5254891953545,512.1148715693621,568.2679460388962,375.1837446024434,448.64316253031575,
Pz,158.3590496164546,123.58714079386861,210.7331033013669,143.22688808294362,186.10963105154593,
T8,359.19755494825836,347.81465192252597,421.1993803128437,459.4610303346024,348.29646753835084,
AF4,468.13898311408553,320.2877187504189,690.2038389514365,172.92339496296543,242.7544739400986,
AF3,317.58004428279605,483.6066686518321,609.7163811136867,203.31860757340465,375.80121662590307,
T7,616.5254891953545,512.1148715693621,568.2679460388962,375.1837446024434,448.64316253031575,
Pz,158.3590496164546,123.58714079386861,210.7331033013669,143.22688808294362,186.10963105154593,
T8,359.19755494825836,347.81465192252597,421.1993803128437,459.4610303346024,348.29646753835084,
AF4,468.13898311408553,320.2877187504189,690.2038389514365,172.92339496296543,242.7544739400986,
AF3,317.58004428279605,483.6066686518321,609.7163811136867,203.31860757340465,375.80121662590307,
T7,616.5254891953545,512.1148715693621,568.2679460388962,375.1837446024434,448.64316253031575,
Pz,158.3590496164546,123.58714079386861,210.7331033013669,143.22688808294362,186.10963105154593,
T8,359.19755494825836,347.81465192252597,421.1993803128437,459.4610303346024,348.29646753835084,
AF4,468.13898311408553,320.2877187504189,690.2038389514365,172.92339496296543,242.7544739400986,
AF3,317.58004428279605,483.6066686518321,609.7163811136867,203.31860757340465,375.80121662590307,
T7,616.5254891953545,512.1148715693621,568.2679460388962,375.1837446024434,448.64316253031575,
Pz,158.3590496164546,123.58714079386861,210.7331033013669,143.22688808294362,186.10963105154593,
T8,359.19755494825836,347.81465192252597,421.1993803128437,459.4610303346024,348.29646753835084,
AF4,468.13898311408553,320.2877187504189,690.2038389514365,172.92339496296543,242.7544739400986,
AF3,317.58004428279605,483.6066686518321,609.7163811136867,203.31860757340465,375.80121662590307,
T7,616.5254891953545,512.1148715693621,568.2679460388962,375.1837446024434,448.64316253031575,
Pz,158.3590496164546,123.58714079386861,210.7331033013669,143.22688808294362,186.10963105154593,
T8,359.19755494825836,347.81465192252597,421.1993803128437,459.4610303346024,348.29646753835084,
AF4,468.13898311408553,320.2877187504189,690.2038389514365,172.92339496296543,242.7544739400986,
AF3,317.58004428279605,483.6066686518321,609.7163811136867,203.31860757340465,375.80121662590307,
T7,616.5254891953545,512.1148715693621,568.2679460388962,375.1837446024434,448.64316253031575,
Pz,158.3590496164546,123.58714079386861,210.7331033013669,143.22688808294362,186.10963105154593,
T8,359.19755494825836,347.81465192252597,421.1993803128437,459.4610303346024,348.29646753835084,
AF4,468.13898311408553,320.2877187504189,690.2038389514365,172.92339496296543,242.7544739400986,
AF3,317.58004428279605,483.6066686518321,609.7163811136867,203.31860757340465,375.80121662590307,
T7,616.5254891953545,512.1148715693621,568.2679460388962,375.1837446024434,448.64316253031575,
Pz,158.3590496164546,123.58714079386861,210.7331033013669,143.22688808294362,186.10963105154593,
T8,359.19755494825836,347.81465192252597,421.1993803128437,459.4610303346024,348.29646753835084,
AF4,468.13898311408553,320.2877187504189,690.2038389514365,172.92339496296543,242.7544739400986,
AF3,317.58004428279605,483.6066686518321,609.7163811136867,203.31860757340465,375.80121662590307,
T7,616.5254891953545,512.1148715693621,568.2679460388962,375.1837446024434,448.64316253031575,
Pz,158.3590496164546,123.58714079386861,210.7331033013669,143.22688808294362,186.10963105154593,
T8,359.19755494825836,347.81465192252597,421.1993803128437,459.4610303346024,348.29646753835084,
AF4,468.13898311408553,320.2877187504189,690.2038389514365,172.92339496296543,242.7544739400986,
AF3,317.58004428279605,483.6066686518321,609.7163811136867,203.31860757340465,375.80121662590307,
T7,616.5254891953545,512.1148715693621,568.2679460388962,375.1837446024434,448.64316253031575,
Pz,158.3590496164546,123.58714079386861,210.7331033013669,143.22688808294362,186.10963105154593,
T8,359.19755494825836,347.81465192252597,421.1993803128437,459.4610303346024,348.29646753835084,
AF4,468.13898311408553,320.2877187504189,690.2038389514365,172.92339496296543,242.7544739400986,
AF3,317.58004428279605,483.6066686518321,609.7163811136867,203.31860757340465,375.80121662590307,
T7,616.5254891953545,512.1148715693621,568.2679460388962,375.1837446024434,448.64316253031575,
Pz,158.3590496164546,123.58714079386861,210.7331033013669,143.22688808294362,186.10963105154593,
T8,359.19755494825836,347.81465192252597,421.1993803128437,459.4610303346024,348.29646753835084,
AF4,468.13898311408553,320.2877187504189,690.2038389514365,172.92339496296543,242.7544739400986,
AF3,317.58004428279605,483.6066686518321,609.7163811136867,203.31860757340465,375.80121662590307,
T7,616.5254891953545,512.1148715693621,568.2679460388962,375.1837446024434,448.64316253031575,
Pz,158.3590496164546,123.58714079386861,210.7331033013669,143.22688808294362,186.10963105154593,
T8,359.19755494825836,347.81465192252597,421.1993803128437,459.4610303346024,348.29646753835084,
AF4,468.13898311408553,320.2877187504189,690.2038389514365,172.92339496296543,242.7544739400986,
AF3,317.58004428279605,483.6066686518321,609.7163811136867,203.31860757340465,375.80121662590307,
T7,616.5254891953545,512.1148715693621,568.2679460388962,375.1837446024434,448.64316253031575,
Pz,158.3590496164546,123.58714079386861,210.7331033013669,143.22688808294362,186.10963105154593,
T8,359.19755494825836,347.81465192252597,421.1993803128437,459.4610303346024,348.29646753835084,
AF4,468.13898311408553,320.2877187504189,690.2038389514365,172.92339496296543,242.7544739400986,
AF3,317.58004428279605,483.6066686518321,609.7163811136867,203.31860757340465,375.80121662590307,
T7,616.5254891953545,512.1148715693621,568.2679460388962,375.1837446024434,448.64316253031575,
Pz,158.3590496164546,123.58714079386861,210.7331033013669,143.22688808294362,186.10963105154593,
T8,359.19755494825836,347.81465192252597,421.1993803128437,459.4610303346024,348.29646753835084,
AF4,468.13898311408553,320.2877187504189,690.2038389514365,172.92339496296543,242.7544739400986,
AF3,317.58004428279605,483.6066686518321,609.7163811136867,203.31860757340465,375.80121662590307,
T7,616.5254891953545,512.1148715693621,568.2679460388962,375.1837446024434,448.64316253031575,
Pz,158.3590496164546,123.58714079386861,210.7331033013669,143.22688808294362,186.10963105154593,
T8,359.19755494825836,347.81465192252597,421.1993803128437,459.4610303346024,348.29646753835084,
AF4,468.13898311408553,320.2877187504189,690.2038389514365,172.92339496296543,242.7544739400986,
AF3,317.58004428279605,483.6066686518321,609.7163811136867,203.31860757340465,375.80121662590307,
T7,616.5254891953545,512.1148715693621,568.2679460388962,375.1837446024434,448.64316253031575,
Pz,158.3590496164546,123.58714079386861,210.7331033013669,143.22688808294362,186.10963105154593,
T8,359.19755494825836,347.81465192252597,421.1993803128437,459.4610303346024,348.29646753835084,
AF4,468.13898311408553,320.2877187504189,690.2038389514365,172.92339496296543,242.7544739400986,
AF3,317.58004428279605,483.6066686518321,609.7163811136867,203.31860757340465,375.80121662590307,
T7,616.5254891953545,512.1148715693621,568.2679460388962,375.1837446024434,448.64316253031575,
Pz,158.3590496164546,123.58714079386861,210.7331033013669,143.22688808294362,186.10963105154593,
T8,359.19755494825836,347.81465192252597,421.1993803128437,459.4610303346024,348.29646753835084,
AF4,468.13898311408553,320.2877187504189,690.2038389514365,172.92339496296543,242.7544739400986,
AF3,317.58004428279605,483.6066686518321,609.7163811136867,203.31860757340465,375.80121662590307,
T7,616.5254891953545,512.1148715693621,568.2679460388962,375.1837446024434,448.64316253031575,
Pz,158.3590496164546,123.58714079386861,210.7331033013669,143.22688808294362,186.10963105154593,
T8,359.19755494825836,347.81465192252597,421.1993803128437,459.4610303346024,348.29646753835084,
AF4,468.13898311408553,320.2877187504189,690.2038389514365,172.92339496296543,242.7544739400986,
AF3,317.58004428279605,483.6066686518321,609.7163811136867,203.31860757340465,375.80121662590307,
T7,616.5254891953545,512.1148715693621,568.2679460388962,375.1837446024434,448.64316253031575,
Pz,158.3590496164546,123.58714079386861,210.7331033013669,143.22688808294362,186.10963105154593,
T8,359.19755494825836,347.81465192252597,421.1993803128437,459.4610303346024,348.29646753835084,
AF4,468.13898311408553,320.2877187504189,690.2038389514365,172.92339496296543,242.7544739400986,
AF3,317.58004428279605,483.6066686518321,609.7163811136867,203.31860757340465,375.80121662590307,
T7,616.5254891953545,512.1148715693621,568.2679460388962,375.1837446024434,448.64316253031575,
Pz,158.3590496164546,123.58714079386861,210.7331033013669,143.22688808294362,186.10963105154593,
T8,359.19755494825836,347.81465192252597,421.1993803128437,459.4610303346024,348.29646753835084,
AF4,468.13898311408553,320.2877187504189,690.2038389514365,172.92339496296543,242.7544739400986,
AF3,317.58004428279605,483.6066686518321,609.7163811136867,203.31860757340465,375.80121662590307,
T7,616.5254891953545,512.1148715693621,568.2679460388962,375.1837446024434,448.64316253031575,
Pz,158.3590496164546,123.58714079386861,210.7331033013669,143.22688808294362,186.10963105154593,
T8,359.19755494825836,347.81465192252597,421.1993803128437,459.4610303346024,348.29646753835084,
AF4,468.13898311408553,320.2877187504189,690.2038389514365,172.92339496296543,242.7544739400986,
AF3,317.58004428279605,483.6066686518321,609.7163811136867,203.31860757340465,375.80121662590307,
T7,616.5254891953545,512.1148715693621,568.2679460388962,375.1837446024434,448.64316253031575,
Pz,158.3590496164546,123.58714079386861,210.7331033013669,143.22688808294362,186.10963105154593,
T8,359.19755494825836,347.81465192252597,421.1993803128437,459.4610303346024,348.29646753835084,
AF4,468.13898311408553,320.2877187504189,690.2038389514365,172.92339496296543,242.7544739400986,
AF3,317.58004428279605,483.6066686518321,609.7163811136867,203.31860757340465,375.80121662590307,
T7,616.5254891953545,512.1148715693621,568.2679460388962,375.1837446024434,448.64316253031575,
Pz,158.3590496164546,123.58714079386861,210.7331033013669,143.22688808294362,186.10963105154593,
T8,359.19755494825836,347.81465192252597,421.1993803128437,459.4610303346024,348.29646753835084,
AF4,468.13898311408553,320.2877187504189,690.2038389514365,172.92339496296543,242.7544739400986,
AF3,317.58004428279605,483.6066686518321,609.7163811136867,203.31860757340465,375.80121662590307,
T7,616.5254891953545,512.1148715693621,568.2679460388962,375.1837446024434,448.64316253031575,
Pz,158.3590496164546,123.58714079386861,210.7331033013669,143.22688808294362,186.10963105154593,
T8,359.19755494825836,347.81465192252597,421.1993803128437,459.4610303346024,348.29646753835084,
AF4,468.13898311408553,320.2877187504189,690.2038389514365,172.92339496296543,242.7544739400986,
AF3,317.58004428279605,483.6066686518321,609.7163811136867,203.31860757340465,375.80121662590307,
T7,616.5254891953545,512.1148715693621,568.2679460388962,375.1837446024434,448.64316253031575,
Pz,158.3590496164546,123.58714079386861,210.7331033013669,143.22688808294362,186.10963105154593,
T8,359.19755494825836,347.81465192252597,421.1993803128437,459.4610303346024,348.29646753835084,
AF4,468.13898311408553,320.2877187504189,690.2038389514365,172.92339496296543,242.7544739400986,
AF3,317.58004428279605,483.6066686518321,609.7163811136867,203.31860757340465,375.80121662590307,
T7,616.5254891953545,512.1148715693621,568.2679460388962,375.1837446024434,448.64316253031575,
Pz,158.3590496164546,123.58714079386861,210.7331033013669,143.22688808294362,186.10963105154593,
T8,359.19755494825836,347.81465192252597,421.1993803128437,459.4610303346024,348.29646753835084,
AF4,468.13898311408553,320.2877187504189,690.2038389514365,172.92339496296543,242.7544739400986,
AF3,317.58004428279605,483.6066686518321,609.7163811136867,203.31860757340465,375.80121662590307,
T7,616.5254891953545,512.1148715693621,568.2679460388962,375.1837446024434,448.64316253031575,
Pz,158.3590496164546,123.58714079386861,210.7331033013669,143.22688808294362,186.10963105154593,
T8,359.19755494825836,347.81465192252597,421.1993803128437,459.4610303346024,348.29646753835084,
AF4,468.13898311408553,320.2877187504189,690.2038389514365,172.92339496296543,242.7544739400986,
AF3,317.58004428279605,483.6066686518321,609.7163811136867,203.31860757340465,375.80121662590307,
T7,616.5254891953545,512.1148715693621,568.2679460388962,375.1837446024434,448.64316253031575,
Pz,158.3590496164546,123.58714079386861,210.7331033013669,143.22688808294362,186.10963105154593,
T8,359.19755494825836,347.81465192252597,421.1993803128437,459.4610303346024,348.29646753835084,
AF4,468.13898311408553,320.2877187504189,690.2038389514365,172.92339496296543,242.7544739400986,
AF3,317.58004428279605,483.6066686518321,609.7163811136867,203.31860757340465,375.80121662590307,
T7,616.5254891953545,512.1148715693621,568.2679460388962,375.1837446024434,448.64316253031575,
Pz,158.3590496164546,123.58714079386861,210.7331033013669,143.22688808294362,186.10963105154593,
T8,359.19755494825836,347.81465192252597,421.1993803128437,459.4610303346024,348.29646753835084,
AF4,468.13898311408553,320.2877187504189,690.2038389514365,172.92339496296543,242.7544739400986,
AF3,317.58004428279605,483.6066686518321,609.7163811136867,203.31860757340465,375.80121662590307,
T7,616.5254891953545,512.1148715693621,568.2679460388962,375.1837446024434,448.64316253031575,
Pz,158.3590496164546,123.58714079386861,210.7331033013669,143.22688808294362,186.10963105154593,
T8,359.19755494825836,347.81465192252597,421.1993803128437,459.4610303346024,348.29646753835084,
AF4,468.13898311408553,320.2877187504189,690.2038389514365,172.92339496296543,242.7544739400986,
AF3,317.58004428279605,483.6066686518321,609.7163811136867,203.31860757340465,375.80121662590307,
T7,616.5254891953545,512.1148715693621,568.2679460388962,375.1837446024434,448.64316253031575,
Pz,158.3590496164546,123.58714079386861,210.7331033013669,143.22688808294362,186.10963105154593,
T8,359.19755494825836,347.81465192252597,421.1993803128437,459.4610303346024,348.29646753835084,
AF4,468.13898311408553,320.2877187504189,690.2038389514365,172.92339496296543,242.7544739400986,
AF3,317.58004428279605,483.6066686518321,609.7163811136867,203.31860757340465,375.80121662590307,
T7,616.5254891953545,512.1148715693621,568.2679460388962,375.1837446024434,448.64316253031575,
Pz,158.3590496164546,123.58714079386861,210.7331033013669,143.22688808294362,186.10963105154593,
T8,359.19755494825836,347.81465192252597,421.1993803128437,459.4610303346024,348.29646753835084,
AF4,468.13898311408553,320.2877187504189,690.2038389514365,172.92339496296543,242.7544739400986,
AF3,317.58004428279605,483.6066686518321,609.7163811136867,203.31860757340465,375.80121662590307,
T7,616.5254891953545,512.1148715693621,568.2679460388962,375.1837446024434,448.64316253031575,
Pz,158.3590496164546,123.58714079386861,210.7331033013669,143.22688808294362,186.10963105154593,
T8,359.19755494825836,347.81465192252597,421.1993803128437,459.4610303346024,348.29646753835084,
AF4,468.13898311408553,320.2877187504189,690.2038389514365,172.92339496296543,242.7544739400986,
AF3,317.58004428279605,483.6066686518321,609.7163811136867,203.31860757340465,375.80121662590307,
T7,616.5254891953545,512.1148715693621,568.2679460388962,375.1837446024434,448.64316253031575,
Pz,158.3590496164546,123.58714079386861,210.7331033013669,143.22688808294362,186.10963105154593,
T8,359.19755494825836,347.81465192252597,421.1993803128437,459.4610303346024,348.29646753835084,
AF4,468.13898311408553,320.2877187504189,690.2038389514365,172.92339496296543,242.7544739400986,
AF3,317.58004428279605,483.6066686518321,609.7163811136867,203.31860757340465,375.80121662590307,
T7,616.5254891953545,512.1148715693621,568.2679460388962,375.1837446024434,448.64316253031575,
Pz,158.3590496164546,123.58714079386861,210.7331033013669,143.22688808294362,186.10963105154593,
T8,359.19755494825836,347.81465192252597,421.1993803128437,459.4610303346024,348.29646753835084,
AF4,468.13898311408553,320.2877187504189,690.2038389514365,172.92339496296543,242.7544739400986,
AF3,317.58004428279605,483.6066686518321,609.7163811136867,203.31860757340465,375.80121662590307,
T7,616.5254891953545,512.1148715693621,568.2679460388962,375.1837446024434,448.64316253031575,
Pz,158.3590496164546,123.58714079386861,210.7331033013669,143.22688808294362,186.10963105154593,
T8,359.19755494825836,347.81465192252597,421.1993803128437,459.4610303346024,348.29646753835084,
AF4,468.13898311408553,320.2877187504189,690.2038389514365,172.92339496296543,242.7544739400986,
AF3,317.58004428279605,483.6066686518321,609.7163811136867,203.31860757340465,375.80121662590307,
T7,616.5254891953545,512.1148715693621,568.2679460388962,375.1837446024434,448.64316253031575,
Pz,158.3590496164546,123.58714079386861,210.7331033013669,143.22688808294362,186.10963105154593,
T8,359.19755494825836,347.81465192252597,421.1993803128437,459.4610303346024,348.29646753835084,
AF4,468.13898311408553,320.2877187504189,690.2038389514365,172.92339496296543,242.7544739400986,
AF3,317.58004428279605,483.6066686518321,609.7163811136867,203.31860757340465,375.80121662590307,
T7,616.5254891953545,512.1148715693621,568.2679460388962,375.1837446024434,448.64316253031575,
Pz,158.3590496164546,123.58714079386861,210.7331033013669,143.22688808294362,186.10963105154593,
T8,359.19755494825836,347.81465192252597,421.1993803128437,459.4610303346024,348.29646753835084,
AF4,468.13898311408553,320.2877187504189,690.2038389514365,172.92339496296543,242.7544739400986,
AF3,317.58004428279605,483.6066686518321,609.7163811136867,203.31860757340465,375.80121662590307,
T7,616.5254891953545,512.1148715693621,568.2679460388962,375.1837446024434,448.64316253031575,
Pz,158.3590496164546,123.58714079386861,210.7331033013669,143.22688808294362,186.10963105154593,
T8,359.19755494825836,347.81465192252597,421.1993803128437,459.4610303346024,348.29646753835084,
AF4,468.13898311408553,320.2877187504189,690.2038389514365,172.92339496296543,242.7544739400986,
AF3,317.58004428279605,483.6066686518321,609.7163811136867,203.31860757340465,375.80121662590307,
T7,616.5254891953545,512.1148715693621,568.2679460388962,375.1837446024434,448.64316253031575,
Pz,158.3590496164546,123.58714079386861,210.7331033013669,143.22688808294362,186.10963105154593,
T8,359.19755494825836,347.81465192252597,421.1993803128437,459.4610303346024,348.29646753835084,
AF4,468.13898311408553,320.2877187504189,690.2038389514365,172.92339496296543,242.7544739400986,
AF3,317.58004428279605,483.6066686518321,609.7163811136867,203.31860757340465,375.80121662590307,
T7,616.5254891953545,512.1148715693621,568.2679460388962,375.1837446024434,448.64316253031575,
Pz,158.3590496164546,123.58714079386861,210.7331033013669,143.22688808294362,186.10963105154593,
T8,359.19755494825836,347.81465192252597,421.1993803128437,459.4610303346024,348.29646753835084,
AF4,468.13898311408553,320.2877187504189,690.2038389514365,172.92339496296543,242.7544739400986,
AF3,317.58004428279605,483.6066686518321,609.7163811136867,203.31860757340465,375.80121662590307,
T7,616.5254891953545,512.1148715693621,568.2679460388962,375.1837446024434,448.64316253031575,
Pz,158.3590496164546,123.58714079386861,210.7331033013669,143.22688808294362,186.10963105154593,
T8,359.19755494825836,347.81465192252597,421.1993803128437,459.4610303346024,348.29646753835084,
AF4,468.13898311408553,320.2877187504189,690.2038389514365,172.92339496296543,242.7544739400986,
AF3,317.58004428279605,483.6066686518321,609.7163811136867,203.31860757340465,375.80121662590307,
T7,616.5254891953545,512.1148715693621,568.2679460388962,375.1837446024434,448.64316253031575,
Pz,158.3590496164546,123.58714079386861,210.7331033013669,143.22688808294362,186.10963105154593,
T8,359.19755494825836,347.81465192252597,421.1993803128437,459.4610303346024,348.29646753835084,
AF4,468.13898311408553,320.2877187504189,690.2038389514365,172.92339496296543,242.7544739400986,
AF3,317.58004428279605,483.6066686518321,609.7163811136867,203.31860757340465,375.80121662590307,
T7,616.5254891953545,512.1148715693621,568.2679460388962,375.1837446024434,448.64316253031575,
Pz,158.3590496164546,123.58714079386861,210.7331033013669,143.22688808294362,186.10963105154593,
T8,359.19755494825836,347.81465192252597,421.1993803128437,459.4610303346024,348.29646753835084,
AF4,468.13898311408553,320.2877187504189,690.2038389514365,172.92339496296543,242.7544739400986,
AF3,317.58004428279605,483.6066686518321,609.7163811136867,203.31860757340465,375.80121662590307,
T7,616.5254891953545,512.1148715693621,568.2679460388962,375.1837446024434,448.64316253031575,
Pz,158.3590496164546,123.58714079386861,210.7331033013669,143.22688808294362,186.10963105154593,
T8,359.19755494825836,347.81465192252597,421.1993803128437,459.4610303346024,348.29646753835084,
AF4,468.13898311408553,320.2877187504189,690.2038389514365,172.92339496296543,242.7544739400986,
AF3,317.58004428279605,483.6066686518321,609.7163811136867,203.31860757340465,375.80121662590307,
T7,616.5254891953545,512.1148715693621,568.2679460388962,375.1837446024434,448.64316253031575,
Pz,158.3590496164546,123.58714079386861,210.7331033013669,143.22688808294362,186.10963105154593,
T8,359.19755494825836,347.81465192252597,421.1993803128437,459.4610303346024,348.29646753835084,
AF4,468.13898311408553,320.2877187504189,690.2038389514365,172.92339496296543,242.7544739400986,
AF3,317.58004428279605,483.6066686518321,609.7163811136867,203.31860757340465,375.80121662590307,
T7,616.5254891953545,512.1148715693621,568.2679460388962,375.1837446024434,448.64316253031575,
Pz,158.3590496164546,123.58714079386861,210.7331033013669,143.22688808294362,186.10963105154593,
T8,359.19755494825836,347.81465192252597,421.1993803128437,459.4610303346024,348.29646753835084,
AF4,468.13898311408553,320.2877187504189,690.2038389514365,172.92339496296543,242.7544739400986,
AF3,317.58004428279605,483.6066686518321,609.7163811136867,203.31860757340465,375.80121662590307,
T7,616.5254891953545,512.1148715693621,568.2679460388962,375.1837446024434,448.64316253031575,
Pz,158.3590496164546,123.58714079386861,210.7331033013669,143.22688808294362,186.10963105154593,
T8,359.19755494825836,347.81465192252597,421.1993803128437,459.4610303346024,348.29646753835084,
AF4,468.13898311408553,320.2877187504189,690.2038389514365,172.92339496296543,242.7544739400986,
AF3,317.58004428279605,483.6066686518321,609.7163811136867,203.31860757340465,375.80121662590307,
T7,616.5254891953545,512.1148715693621,568.2679460388962,375.1837446024434,448.64316253031575,
Pz,158.3590496164546,123.58714079386861,210.7331033013669,143.22688808294362,186.10963105154593,
T8,359.19755494825836,347.81465192252597,421.1993803128437,459.4610303346024,348.29646753835084,
AF4,468.13898311408553,320.2877187504189,690.2038389514365,172.92339496296543,242.7544739400986,
AF3,317.58004428279605,483.6066686518321,609.7163811136867,203.31860757340465,375.80121662590307,
T7,616.5254891953545,512.1148715693621,568.2679460388962,375.1837446024434,448.64316253031575,
Pz,158.3590496164546,123.58714079386861,210.7331033013669,143.22688808294362,186.10963105154593,
T8,359.19755494825836,347.81465192252597,421.1993803128437,459.4610303346024,348.29646753835084,
AF4,468.13898311408553,320.2877187504189,690.2038389514365,172.92339496296543,242.7544739400986,
AF3,317.58004428279605,483.6066686518321,609.7163811136867,203.31860757340465,375.80121662590307,
T7,616.5254891953545,512.1148715693621,568.2679460388962,375.1837446024434,448.64316253031575,
Pz,158.3590496164546,123.58714079386861,210.7331033013669,143.22688808294362,186.10963105154593,
T8,359.19755494825836,347.81465192252597,421.1993803128437,459.4610303346024,348.29646753835084,
AF4,468.13898311408553,320.2877187504189,690.2038389514365,172.92339496296543,242.7544739400986,
AF3,317.58004428279605,483.6066686518321,609.7163811136867,203.31860757340465,375.80121662590307,
T7,616.5254891953545,512.1148715693621,568.2679460388962,375.1837446024434,448.64316253031575,
Pz,158.3590496164546,123.58714079386861,210.7331033013669,143.22688808294362,186.10963105154593,
T8,359.19755494825836,347.81465192252597,421.1993803128437,459.4610303346024,348.29646753835084,
AF4,468.13898311408553,320.2877187504189,690.2038389514365,172.92339496296543,242.7544739400986,
AF3,317.58004428279605,483.6066686518321,609.7163811136867,203.31860757340465,375.80121662590307,
T7,616.5254891953545,512.1148715693621,568.2679460388962,375.1837446024434,448.64316253031575,
Pz,158.3590496164546,123.58714079386861,210.7331033013669,143.22688808294362,186.10963105154593,
T8,359.19755494825836,347.81465192252597,421.1993803128437,459.4610303346024,348.29646753835084,
AF4,468.13898311408553,320.2877187504189,690.2038389514365,172.92339496296543,242.7544739400986,
AF3,317.58004428279605,483.6066686518321,609.7163811136867,203.31860757340465,375.80121662590307,
T7,616.5254891953545,512.1148715693621,568.2679460388962,375.1837446024434,448.64316253031575,
Pz,158.3590496164546,123.58714079386861,210.7331033013669,143.22688808294362,186.10963105154593,
T8,359.19755494825836,347.81465192252597,421.1993803128437,459.4610303346024,348.29646753835084,
AF4,468.13898311408553,320.2877187504189,690.2038389514365,172.92339496296543,242.7544739400986,
AF3,317.58004428279605,483.6066686518321,609.7163811136867,203.31860757340465,375.80121662590307,
T7,616.5254891953545,512.1148715693621,568.2679460388962,375.1837446024434,448.64316253031575,
Pz,158.3590496164546,123.58714079386861,210.7331033013669,143.22688808294362,186.10963105154593,
T8,359.19755494825836,347.81465192252597,421.1993803128437,459.4610303346024,348.29646753835084,
AF4,468.13898311408553,320.2877187504189,690.2038389514365,172.92339496296543,242.7544739400986,
AF3,317.58004428279605,483.6066686518321,609.7163811136867,203.31860757340465,375.80121662590307,
T7,616.5254891953545,512.1148715693621,568.2679460388962,375.1837446024434,448.64316253031575,
Pz,158.3590496164546,123.58714079386861,210.7331033013669,143.22688808294362,186.10963105154593,
T8,359.19755494825836,347.81465192252597,421.1993803128437,459.4610303346024,348.29646753835084,
AF4,468.13898311408553,320.2877187504189,690.2038389514365,172.92339496296543,242.7544739400986,
AF3,317.58004428279605,483.6066686518321,609.7163811136867,203.31860757340465,375.80121662590307,
T7,616.5254891953545,512.1148715693621,568.2679460388962,375.1837446024434,448.64316253031575,
Pz,158.3590496164546,123.58714079386861,210.7331033013669,143.22688808294362,186.10963105154593,
T8,359.19755494825836,347.81465192252597,421.1993803128437,459.4610303346024,348.29646753835084,
AF4,468.13898311408553,320.2877187504189,690.2038389514365,172.92339496296543,242.7544739400986,
AF3,317.58004428279605,483.6066686518321,609.7163811136867,203.31860757340465,375.80121662590307,
T7,616.5254891953545,512.1148715693621,568.2679460388962,375.1837446024434,448.64316253031575,
Pz,158.3590496164546,123.58714079386861,210.7331033013669,143.22688808294362,186.10963105154593,
T8,359.19755494825836,347.81465192252597,421.1993803128437,459.4610303346024,348.29646753835084,
AF4,468.13898311408553,320.2877187504189,690.2038389514365,172.92339496296543,242.7544739400986,
AF3,317.58004428279605,483.6066686518321,609.7163811136867,203.31860757340465,375.80121662590307,
T7,616.5254891953545,512.1148715693621,568.2679460388962,375.1837446024434,448.64316253031575,
Pz,158.3590496164546,123.58714079386861,210.7331033013669,143.22688808294362,186.10963105154593,
T8,359.19755494825836,347.81465192252597,421.1993803128437,459.4610303346024,348.29646753835084,
AF4,468.13898311408553,320.2877187504189,690.2038389514365,172.92339496296543,242.7544739400986,
AF3,317.58004428279605,483.6066686518321,609.7163811136867,203.31860757340465,375.80121662590307,
T7,616.5254891953545,512.1148715693621,568.2679460388962,375.1837446024434,448.64316253031575,
Pz,158.3590496164546,123.58714079386861,210.7331033013669,143.22688808294362,186.10963105154593,
T8,359.19755494825836,347.81465192252597,421.1993803128437,459.4610303346024,348.29646753835084,
AF4,468.13898311408553,320.2877187504189,690.2038389514365,172.92339496296543,242.7544739400986,
AF3,317.58004428279605,483.6066686518321,609.7163811136867,203.31860757340465,375.80121662590307,
T7,616.5254891953545,512.1148715693621,568.2679460388962,375.1837446024434,448.64316253031575,
Pz,158.3590496164546,123.58714079386861,210.7331033013669,143.22688808294362,186.10963105154593,
T8,359.19755494825836,347.81465192252597,421.1993803128437,459.4610303346024,348.29646753835084,
AF4,468.13898311408553,320.2877187504189,690.2038389514365,172.92339496296543,242.7544739400986,
AF3,317.58004428279605,483.6066686518321,609.7163811136867,203.31860757340465,375.80121662590307,
T7,616.5254891953545,512.1148715693621,568.2679460388962,375.1837446024434,448.64316253031575,
Pz,158.3590496164546,123.58714079386861,210.7331033013669,143.22688808294362,186.10963105154593,
T8,359.19755494825836,347.81465192252597,421.1993803128437,459.4610303346024,348.29646753835084,
AF4,468.13898311408553,320.2877187504189,690.2038389514365,172.92339496296543,242.7544739400986,
AF3,317.58004428279605,483.6066686518321,609.7163811136867,203.31860757340465,375.80121662590307,
T7,616.5254891953545,512.1148715693621,568.2679460388962,375.1837446024434,448.64316253031575,
Pz,158.3590496164546,123.58714079386861,210.7331033013669,143.22688808294362,186.10963105154593,
T8,359.19755494825836,347.81465192252597,421.1993803128437,459.4610303346024,348.29646753835084,
AF4,468.13898311408553,320.2877187504189,690.2038389514365,172.92339496296543,242.7544739400986,
AF3,317.58004428279605,483.6066686518321,609.7163811136867,203.31860757340465,375.80121662590307,
T7,616.5254891953545,512.1148715693621,568.2679460388962,375.1837446024434,448.64316253031575,
Pz,158.3590496164546,123.58714079386861,210.7331033013669,143.22688808294362,186.10963105154593,
T8,359.19755494825836,347.81465192252597,421.1993803128437,459.4610303346024,348.29646753835084,
AF4,468.13898311408553,320.2877187504189,690.2038389514365,172.92339496296543,242.7544739400986,
AF3,317.58004428279605,483.6066686518321,609.7163811136867,203.31860757340465,375.80121662590307,
T7,616.5254891953545,512.1148715693621,568.2679460388962,375.1837446024434,448.64316253031575,
Pz,158.3590496164546,123.58714079386861,210.7331033013669,143.22688808294362,186.10963105154593,
T8,359.19755494825836,347.81465192252597,421.1993803128437,459.4610303346024,348.29646753835084,
AF4,468.13898311408553,320.2877187504189,690.2038389514365,172.92339496296543,242.7544739400986,
AF3,456.4462781449646,280.76867578806724,222.1550163697429,458.51245554223397,325.5528542316681,
T7,352.2156853357076,326.89653569897575,255.62480065033003,644.5775094180343,342.5227050789045,
Pz,71.86771075020812,169.80790080724475,294.9484788995403,102.82787987710667,124.5555173980554,
T8,105.8259811503222,130.27127578429955,211.55142670585258,222.16707035391656,253.41114841458023,
AF4,327.4854276054167,202.55255964226066,567.7431909345769,263.68116790193255,394.86733719749895,
AF3,456.4462781449646,280.76867578806724,222.1550163697429,458.51245554223397,325.5528542316681,
T7,352.2156853357076,326.89653569897575,255.62480065033003,644.5775094180343,342.5227050789045,
Pz,71.86771075020812,169.80790080724475,294.9484788995403,102.82787987710667,124.5555173980554,
T8,105.8259811503222,130.27127578429955,211.55142670585258,222.16707035391656,253.41114841458023,
AF4,327.4854276054167,202.55255964226066,567.7431909345769,263.68116790193255,394.86733719749895,
AF3,456.4462781449646,280.76867578806724,222.1550163697429,458.51245554223397,325.5528542316681,
T7,352.2156853357076,326.89653569897575,255.62480065033003,644.5775094180343,342.5227050789045,
Pz,71.86771075020812,169.80790080724475,294.9484788995403,102.82787987710667,124.5555173980554,
T8,105.8259811503222,130.27127578429955,211.55142670585258,222.16707035391656,253.41114841458023,
AF4,327.4854276054167,202.55255964226066,567.7431909345769,263.68116790193255,394.86733719749895,
AF3,456.4462781449646,280.76867578806724,222.1550163697429,458.51245554223397,325.5528542316681,
T7,352.2156853357076,326.89653569897575,255.62480065033003,644.5775094180343,342.5227050789045,
Pz,71.86771075020812,169.80790080724475,294.9484788995403,102.82787987710667,124.5555173980554,
T8,105.8259811503222,130.27127578429955,211.55142670585258,222.16707035391656,253.41114841458023,
AF4,327.4854276054167,202.55255964226066,567.7431909345769,263.68116790193255,394.86733719749895,
AF3,456.4462781449646,280.76867578806724,222.1550163697429,458.51245554223397,325.5528542316681,
T7,352.2156853357076,326.89653569897575,255.62480065033003,644.5775094180343,342.5227050789045,
Pz,71.86771075020812,169.80790080724475,294.9484788995403,102.82787987710667,124.5555173980554,
T8,105.8259811503222,130.27127578429955,211.55142670585258,222.16707035391656,253.41114841458023,
AF4,327.4854276054167,202.55255964226066,567.7431909345769,263.68116790193255,394.86733719749895,
AF3,456.4462781449646,280.76867578806724,222.1550163697429,458.51245554223397,325.5528542316681,
T7,352.2156853357076,326.89653569897575,255.62480065033003,644.5775094180343,342.5227050789045,
Pz,71.86771075020812,169.80790080724475,294.9484788995403,102.82787987710667,124.5555173980554,
T8,105.8259811503222,130.27127578429955,211.55142670585258,222.16707035391656,253.41114841458023,
AF4,327.4854276054167,202.55255964226066,567.7431909345769,263.68116790193255,394.86733719749895,
AF3,456.4462781449646,280.76867578806724,222.1550163697429,458.51245554223397,325.5528542316681,
T7,352.2156853357076,326.89653569897575,255.62480065033003,644.5775094180343,342.5227050789045,
Pz,71.86771075020812,169.80790080724475,294.9484788995403,102.82787987710667,124.5555173980554,
T8,105.8259811503222,130.27127578429955,211.55142670585258,222.16707035391656,253.41114841458023,
AF4,327.4854276054167,202.55255964226066,567.7431909345769,263.68116790193255,394.86733719749895,
AF3,456.4462781449646,280.76867578806724,222.1550163697429,458.51245554223397,325.5528542316681,
T7,352.2156853357076,326.89653569897575,255.62480065033003,644.5775094180343,342.5227050789045,
Pz,71.86771075020812,169.80790080724475,294.9484788995403,102.82787987710667,124.5555173980554,
T8,105.8259811503222,130.27127578429955,211.55142670585258,222.16707035391656,253.41114841458023,
AF4,327.4854276054167,202.55255964226066,567.7431909345769,263.68116790193255,394.86733719749895,
AF3,456.4462781449646,280.76867578806724,222.1550163697429,458.51245554223397,325.5528542316681,
T7,352.2156853357076,326.89653569897575,255.62480065033003,644.5775094180343,342.5227050789045,
Pz,71.86771075020812,169.80790080724475,294.9484788995403,102.82787987710667,124.5555173980554,
T8,105.8259811503222,130.27127578429955,211.55142670585258,222.16707035391656,253.41114841458023,
AF4,327.4854276054167,202.55255964226066,567.7431909345769,263.68116790193255,394.86733719749895,
AF3,456.4462781449646,280.76867578806724,222.1550163697429,458.51245554223397,325.5528542316681,
T7,352.2156853357076,326.89653569897575,255.62480065033003,644.5775094180343,342.5227050789045,
Pz,71.86771075020812,169.80790080724475,294.9484788995403,102.82787987710667,124.5555173980554,
T8,105.8259811503222,130.27127578429955,211.55142670585258,222.16707035391656,253.41114841458023,
AF4,327.4854276054167,202.55255964226066,567.7431909345769,263.68116790193255,394.86733719749895,
AF3,456.4462781449646,280.76867578806724,222.1550163697429,458.51245554223397,325.5528542316681,
T7,352.2156853357076,326.89653569897575,255.62480065033003,644.5775094180343,342.5227050789045,
Pz,71.86771075020812,169.80790080724475,294.9484788995403,102.82787987710667,124.5555173980554,
T8,105.8259811503222,130.27127578429955,211.55142670585258,222.16707035391656,253.41114841458023,
AF4,327.4854276054167,202.55255964226066,567.7431909345769,263.68116790193255,394.86733719749895,
AF3,456.4462781449646,280.76867578806724,222.1550163697429,458.51245554223397,325.5528542316681,
T7,352.2156853357076,326.89653569897575,255.62480065033003,644.5775094180343,342.5227050789045,
Pz,71.86771075020812,169.80790080724475,294.9484788995403,102.82787987710667,124.5555173980554,
T8,105.8259811503222,130.27127578429955,211.55142670585258,222.16707035391656,253.41114841458023,
AF4,327.4854276054167,202.55255964226066,567.7431909345769,263.68116790193255,394.86733719749895,
AF3,456.4462781449646,280.76867578806724,222.1550163697429,458.51245554223397,325.5528542316681,
T7,352.2156853357076,326.89653569897575,255.62480065033003,644.5775094180343,342.5227050789045,
Pz,71.86771075020812,169.80790080724475,294.9484788995403,102.82787987710667,124.5555173980554,
T8,105.8259811503222,130.27127578429955,211.55142670585258,222.16707035391656,253.41114841458023,
AF4,327.4854276054167,202.55255964226066,567.7431909345769,263.68116790193255,394.86733719749895,
AF3,456.4462781449646,280.76867578806724,222.1550163697429,458.51245554223397,325.5528542316681,
T7,352.2156853357076,326.89653569897575,255.62480065033003,644.5775094180343,342.5227050789045,
Pz,71.86771075020812,169.80790080724475,294.9484788995403,102.82787987710667,124.5555173980554,
T8,105.8259811503222,130.27127578429955,211.55142670585258,222.16707035391656,253.41114841458023,
AF4,327.4854276054167,202.55255964226066,567.7431909345769,263.68116790193255,394.86733719749895,
AF3,456.4462781449646,280.76867578806724,222.1550163697429,458.51245554223397,325.5528542316681,
T7,352.2156853357076,326.89653569897575,255.62480065033003,644.5775094180343,342.5227050789045,
Pz,71.86771075020812,169.80790080724475,294.9484788995403,102.82787987710667,124.5555173980554,
T8,105.8259811503222,130.27127578429955,211.55142670585258,222.16707035391656,253.41114841458023,
AF4,327.4854276054167,202.55255964226066,567.7431909345769,263.68116790193255,394.86733719749895,
AF3,456.4462781449646,280.76867578806724,222.1550163697429,458.51245554223397,325.5528542316681,
T7,352.2156853357076,326.89653569897575,255.62480065033003,644.5775094180343,342.5227050789045,
Pz,71.86771075020812,169.80790080724475,294.9484788995403,102.82787987710667,124.5555173980554,
T8,105.8259811503222,130.27127578429955,211.55142670585258,222.16707035391656,253.41114841458023,
AF4,327.4854276054167,202.55255964226066,567.7431909345769,263.68116790193255,394.86733719749895,
AF3,456.4462781449646,280.76867578806724,222.1550163697429,458.51245554223397,325.5528542316681,
T7,352.2156853357076,326.89653569897575,255.62480065033003,644.5775094180343,342.5227050789045,
Pz,71.86771075020812,169.80790080724475,294.9484788995403,102.82787987710667,124.5555173980554,
T8,105.8259811503222,130.27127578429955,211.55142670585258,222.16707035391656,253.41114841458023,
AF4,327.4854276054167,202.55255964226066,567.7431909345769,263.68116790193255,394.86733719749895,
AF3,456.4462781449646,280.76867578806724,222.1550163697429,458.51245554223397,325.5528542316681,
T7,352.2156853357076,326.89653569897575,255.62480065033003,644.5775094180343,342.5227050789045,
Pz,71.86771075020812,169.80790080724475,294.9484788995403,102.82787987710667,124.5555173980554,
T8,105.8259811503222,130.27127578429955,211.55142670585258,222.16707035391656,253.41114841458023,
AF4,327.4854276054167,202.55255964226066,567.7431909345769,263.68116790193255,394.86733719749895,
AF3,456.4462781449646,280.76867578806724,222.1550163697429,458.51245554223397,325.5528542316681,
T7,352.2156853357076,326.89653569897575,255.62480065033003,644.5775094180343,342.5227050789045,
Pz,71.86771075020812,169.80790080724475,294.9484788995403,102.82787987710667,124.5555173980554,
T8,105.8259811503222,130.27127578429955,211.55142670585258,222.16707035391656,253.41114841458023,
AF4,327.4854276054167,202.55255964226066,567.7431909345769,263.68116790193255,394.86733719749895,
AF3,456.4462781449646,280.76867578806724,222.1550163697429,458.51245554223397,325.5528542316681,
T7,352.2156853357076,326.89653569897575,255.62480065033003,644.5775094180343,342.5227050789045,
Pz,71.86771075020812,169.80790080724475,294.9484788995403,102.82787987710667,124.5555173980554,
T8,105.8259811503222,130.27127578429955,211.55142670585258,222.16707035391656,253.41114841458023,
AF4,327.4854276054167,202.55255964226066,567.7431909345769,263.68116790193255,394.86733719749895,
AF3,456.4462781449646,280.76867578806724,222.1550163697429,458.51245554223397,325.5528542316681,
T7,352.2156853357076,326.89653569897575,255.62480065033003,644.5775094180343,342.5227050789045,
Pz,71.86771075020812,169.80790080724475,294.9484788995403,102.82787987710667,124.5555173980554,
T8,105.8259811503222,130.27127578429955,211.55142670585258,222.16707035391656,253.41114841458023,
AF4,327.4854276054167,202.55255964226066,567.7431909345769,263.68116790193255,394.86733719749895,
AF3,456.4462781449646,280.76867578806724,222.1550163697429,458.51245554223397,325.5528542316681,
T7,352.2156853357076,326.89653569897575,255.62480065033003,644.5775094180343,342.5227050789045,
Pz,71.86771075020812,169.80790080724475,294.9484788995403,102.82787987710667,124.5555173980554,
T8,105.8259811503222,130.27127578429955,211.55142670585258,222.16707035391656,253.41114841458023,
AF4,327.4854276054167,202.55255964226066,567.7431909345769,263.68116790193255,394.86733719749895,
AF3,456.4462781449646,280.76867578806724,222.1550163697429,458.51245554223397,325.5528542316681,
T7,352.2156853357076,326.89653569897575,255.62480065033003,644.5775094180343,342.5227050789045,
Pz,71.86771075020812,169.80790080724475,294.9484788995403,102.82787987710667,124.5555173980554,
T8,105.8259811503222,130.27127578429955,211.55142670585258,222.16707035391656,253.41114841458023,
AF4,327.4854276054167,202.55255964226066,567.7431909345769,263.68116790193255,394.86733719749895,
AF3,456.4462781449646,280.76867578806724,222.1550163697429,458.51245554223397,325.5528542316681,
T7,352.2156853357076,326.89653569897575,255.62480065033003,644.5775094180343,342.5227050789045,
Pz,71.86771075020812,169.80790080724475,294.9484788995403,102.82787987710667,124.5555173980554,
T8,105.8259811503222,130.27127578429955,211.55142670585258,222.16707035391656,253.41114841458023,
AF4,327.4854276054167,202.55255964226066,567.7431909345769,263.68116790193255,394.86733719749895,
AF3,456.4462781449646,280.76867578806724,222.1550163697429,458.51245554223397,325.5528542316681,
T7,352.2156853357076,326.89653569897575,255.62480065033003,644.5775094180343,342.5227050789045,
Pz,71.86771075020812,169.80790080724475,294.9484788995403,102.82787987710667,124.5555173980554,
T8,105.8259811503222,130.27127578429955,211.55142670585258,222.16707035391656,253.41114841458023,
AF4,327.4854276054167,202.55255964226066,567.7431909345769,263.68116790193255,394.86733719749895,
AF3,456.4462781449646,280.76867578806724,222.1550163697429,458.51245554223397,325.5528542316681,
T7,352.2156853357076,326.89653569897575,255.62480065033003,644.5775094180343,342.5227050789045,
Pz,71.86771075020812,169.80790080724475,294.9484788995403,102.82787987710667,124.5555173980554,
T8,105.8259811503222,130.27127578429955,211.55142670585258,222.16707035391656,253.41114841458023,
AF4,327.4854276054167,202.55255964226066,567.7431909345769,263.68116790193255,394.86733719749895,
AF3,456.4462781449646,280.76867578806724,222.1550163697429,458.51245554223397,325.5528542316681,
T7,352.2156853357076,326.89653569897575,255.62480065033003,644.5775094180343,342.5227050789045,
Pz,71.86771075020812,169.80790080724475,294.9484788995403,102.82787987710667,124.5555173980554,
T8,105.8259811503222,130.27127578429955,211.55142670585258,222.16707035391656,253.41114841458023,
AF4,327.4854276054167,202.55255964226066,567.7431909345769,263.68116790193255,394.86733719749895,
AF3,456.4462781449646,280.76867578806724,222.1550163697429,458.51245554223397,325.5528542316681,
T7,352.2156853357076,326.89653569897575,255.62480065033003,644.5775094180343,342.5227050789045,
Pz,71.86771075020812,169.80790080724475,294.9484788995403,102.82787987710667,124.5555173980554,
T8,105.8259811503222,130.27127578429955,211.55142670585258,222.16707035391656,253.41114841458023,
AF4,327.4854276054167,202.55255964226066,567.7431909345769,263.68116790193255,394.86733719749895,
AF3,456.4462781449646,280.76867578806724,222.1550163697429,458.51245554223397,325.5528542316681,
T7,352.2156853357076,326.89653569897575,255.62480065033003,644.5775094180343,342.5227050789045,
Pz,71.86771075020812,169.80790080724475,294.9484788995403,102.82787987710667,124.5555173980554,
T8,105.8259811503222,130.27127578429955,211.55142670585258,222.16707035391656,253.41114841458023,
AF4,327.4854276054167,202.55255964226066,567.7431909345769,263.68116790193255,394.86733719749895,
AF3,456.4462781449646,280.76867578806724,222.1550163697429,458.51245554223397,325.5528542316681,
T7,352.2156853357076,326.89653569897575,255.62480065033003,644.5775094180343,342.5227050789045,
Pz,71.86771075020812,169.80790080724475,294.9484788995403,102.82787987710667,124.5555173980554,
T8,105.8259811503222,130.27127578429955,211.55142670585258,222.16707035391656,253.41114841458023,
AF4,327.4854276054167,202.55255964226066,567.7431909345769,263.68116790193255,394.86733719749895,
AF3,456.4462781449646,280.76867578806724,222.1550163697429,458.51245554223397,325.5528542316681,
T7,352.2156853357076,326.89653569897575,255.62480065033003,644.5775094180343,342.5227050789045,
Pz,71.86771075020812,169.80790080724475,294.9484788995403,102.82787987710667,124.5555173980554,
T8,105.8259811503222,130.27127578429955,211.55142670585258,222.16707035391656,253.41114841458023,
AF4,327.4854276054167,202.55255964226066,567.7431909345769,263.68116790193255,394.86733719749895,
AF3,456.4462781449646,280.76867578806724,222.1550163697429,458.51245554223397,325.5528542316681,
T7,352.2156853357076,326.89653569897575,255.62480065033003,644.5775094180343,342.5227050789045,
Pz,71.86771075020812,169.80790080724475,294.9484788995403,102.82787987710667,124.5555173980554,
T8,105.8259811503222,130.27127578429955,211.55142670585258,222.16707035391656,253.41114841458023,
AF4,327.4854276054167,202.55255964226066,567.7431909345769,263.68116790193255,394.86733719749895,
AF3,456.4462781449646,280.76867578806724,222.1550163697429,458.51245554223397,325.5528542316681,
T7,352.2156853357076,326.89653569897575,255.62480065033003,644.5775094180343,342.5227050789045,
Pz,71.86771075020812,169.80790080724475,294.9484788995403,102.82787987710667,124.5555173980554,
T8,105.8259811503222,130.27127578429955,211.55142670585258,222.16707035391656,253.41114841458023,
AF4,327.4854276054167,202.55255964226066,567.7431909345769,263.68116790193255,394.86733719749895,
AF3,456.4462781449646,280.76867578806724,222.1550163697429,458.51245554223397,325.5528542316681,
T7,352.2156853357076,326.89653569897575,255.62480065033003,644.5775094180343,342.5227050789045,
Pz,71.86771075020812,169.80790080724475,294.9484788995403,102.82787987710667,124.5555173980554,
T8,105.8259811503222,130.27127578429955,211.55142670585258,222.16707035391656,253.41114841458023,
AF4,327.4854276054167,202.55255964226066,567.7431909345769,263.68116790193255,394.86733719749895,
AF3,456.4462781449646,280.76867578806724,222.1550163697429,458.51245554223397,325.5528542316681,
T7,352.2156853357076,326.89653569897575,255.62480065033003,644.5775094180343,342.5227050789045,
Pz,71.86771075020812,169.80790080724475,294.9484788995403,102.82787987710667,124.5555173980554,
T8,105.8259811503222,130.27127578429955,211.55142670585258,222.16707035391656,253.41114841458023,
AF4,327.4854276054167,202.55255964226066,567.7431909345769,263.68116790193255,394.86733719749895,
AF3,456.4462781449646,280.76867578806724,222.1550163697429,458.51245554223397,325.5528542316681,
T7,352.2156853357076,326.89653569897575,255.62480065033003,644.5775094180343,342.5227050789045,
Pz,71.86771075020812,169.80790080724475,294.9484788995403,102.82787987710667,124.5555173980554,
T8,105.8259811503222,130.27127578429955,211.55142670585258,222.16707035391656,253.41114841458023,
AF4,327.4854276054167,202.55255964226066,567.7431909345769,263.68116790193255,394.86733719749895,
AF3,456.4462781449646,280.76867578806724,222.1550163697429,458.51245554223397,325.5528542316681,
T7,352.2156853357076,326.89653569897575,255.62480065033003,644.5775094180343,342.5227050789045,
Pz,71.86771075020812,169.80790080724475,294.9484788995403,102.82787987710667,124.5555173980554,
T8,105.8259811503222,130.27127578429955,211.55142670585258,222.16707035391656,253.41114841458023,
AF4,327.4854276054167,202.55255964226066,567.7431909345769,263.68116790193255,394.86733719749895,
AF3,456.4462781449646,280.76867578806724,222.1550163697429,458.51245554223397,325.5528542316681,
T7,352.2156853357076,326.89653569897575,255.62480065033003,644.5775094180343,342.5227050789045,
Pz,71.86771075020812,169.80790080724475,294.9484788995403,102.82787987710667,124.5555173980554,
T8,105.8259811503222,130.27127578429955,211.55142670585258,222.16707035391656,253.41114841458023,
AF4,327.4854276054167,202.55255964226066,567.7431909345769,263.68116790193255,394.86733719749895,
AF3,456.4462781449646,280.76867578806724,222.1550163697429,458.51245554223397,325.5528542316681,
T7,352.2156853357076,326.89653569897575,255.62480065033003,644.5775094180343,342.5227050789045,
Pz,71.86771075020812,169.80790080724475,294.9484788995403,102.82787987710667,124.5555173980554,
T8,105.8259811503222,130.27127578429955,211.55142670585258,222.16707035391656,253.41114841458023,
AF4,327.4854276054167,202.55255964226066,567.7431909345769,263.68116790193255,394.86733719749895,
AF3,456.4462781449646,280.76867578806724,222.1550163697429,458.51245554223397,325.5528542316681,
T7,352.2156853357076,326.89653569897575,255.62480065033003,644.5775094180343,342.5227050789045,
Pz,71.86771075020812,169.80790080724475,294.9484788995403,102.82787987710667,124.5555173980554,
T8,105.8259811503222,130.27127578429955,211.55142670585258,222.16707035391656,253.41114841458023,
AF4,327.4854276054167,202.55255964226066,567.7431909345769,263.68116790193255,394.86733719749895,
AF3,456.4462781449646,280.76867578806724,222.1550163697429,458.51245554223397,325.5528542316681,
T7,352.2156853357076,326.89653569897575,255.62480065033003,644.5775094180343,342.5227050789045,
Pz,71.86771075020812,169.80790080724475,294.9484788995403,102.82787987710667,124.5555173980554,
T8,105.8259811503222,130.27127578429955,211.55142670585258,222.16707035391656,253.41114841458023,
AF4,327.4854276054167,202.55255964226066,567.7431909345769,263.68116790193255,394.86733719749895,
AF3,456.4462781449646,280.76867578806724,222.1550163697429,458.51245554223397,325.5528542316681,
T7,352.2156853357076,326.89653569897575,255.62480065033003,644.5775094180343,342.5227050789045,
Pz,71.86771075020812,169.80790080724475,294.9484788995403,102.82787987710667,124.5555173980554,
T8,105.8259811503222,130.27127578429955,211.55142670585258,222.16707035391656,253.41114841458023,
AF4,327.4854276054167,202.55255964226066,567.7431909345769,263.68116790193255,394.86733719749895,
AF3,456.4462781449646,280.76867578806724,222.1550163697429,458.51245554223397,325.5528542316681,
T7,352.2156853357076,326.89653569897575,255.62480065033003,644.5775094180343,342.5227050789045,
Pz,71.86771075020812,169.80790080724475,294.9484788995403,102.82787987710667,124.5555173980554,
T8,105.8259811503222,130.27127578429955,211.55142670585258,222.16707035391656,253.41114841458023,
AF4,327.4854276054167,202.55255964226066,567.7431909345769,263.68116790193255,394.86733719749895,
AF3,456.4462781449646,280.76867578806724,222.1550163697429,458.51245554223397,325.5528542316681,
T7,352.2156853357076,326.89653569897575,255.62480065033003,644.5775094180343,342.5227050789045,
Pz,71.86771075020812,169.80790080724475,294.9484788995403,102.82787987710667,124.5555173980554,
T8,105.8259811503222,130.27127578429955,211.55142670585258,222.16707035391656,253.41114841458023,
AF4,327.4854276054167,202.55255964226066,567.7431909345769,263.68116790193255,394.86733719749895,
AF3,456.4462781449646,280.76867578806724,222.1550163697429,458.51245554223397,325.5528542316681,
T7,352.2156853357076,326.89653569897575,255.62480065033003,644.5775094180343,342.5227050789045,
Pz,71.86771075020812,169.80790080724475,294.9484788995403,102.82787987710667,124.5555173980554,
T8,105.8259811503222,130.27127578429955,211.55142670585258,222.16707035391656,253.41114841458023,
AF4,327.4854276054167,202.55255964226066,567.7431909345769,263.68116790193255,394.86733719749895,
AF3,456.4462781449646,280.76867578806724,222.1550163697429,458.51245554223397,325.5528542316681,
T7,352.2156853357076,326.89653569897575,255.62480065033003,644.5775094180343,342.5227050789045,
Pz,71.86771075020812,169.80790080724475,294.9484788995403,102.82787987710667,124.5555173980554,
T8,105.8259811503222,130.27127578429955,211.55142670585258,222.16707035391656,253.41114841458023,
AF4,327.4854276054167,202.55255964226066,567.7431909345769,263.68116790193255,394.86733719749895,
AF3,456.4462781449646,280.76867578806724,222.1550163697429,458.51245554223397,325.5528542316681,
T7,352.2156853357076,326.89653569897575,255.62480065033003,644.5775094180343,342.5227050789045,
Pz,71.86771075020812,169.80790080724475,294.9484788995403,102.82787987710667,124.5555173980554,
T8,105.8259811503222,130.27127578429955,211.55142670585258,222.16707035391656,253.41114841458023,
AF4,327.4854276054167,202.55255964226066,567.7431909345769,263.68116790193255,394.86733719749895,
AF3,456.4462781449646,280.76867578806724,222.1550163697429,458.51245554223397,325.5528542316681,
T7,352.2156853357076,326.89653569897575,255.62480065033003,644.5775094180343,342.5227050789045,
Pz,71.86771075020812,169.80790080724475,294.9484788995403,102.82787987710667,124.5555173980554,
T8,105.8259811503222,130.27127578429955,211.55142670585258,222.16707035391656,253.41114841458023,
AF4,327.4854276054167,202.55255964226066,567.7431909345769,263.68116790193255,394.86733719749895,
AF3,456.4462781449646,280.76867578806724,222.1550163697429,458.51245554223397,325.5528542316681,
T7,352.2156853357076,326.89653569897575,255.62480065033003,644.5775094180343,342.5227050789045,
Pz,71.86771075020812,169.80790080724475,294.9484788995403,102.82787987710667,124.5555173980554,
T8,105.8259811503222,130.27127578429955,211.55142670585258,222.16707035391656,253.41114841458023,
AF4,327.4854276054167,202.55255964226066,567.7431909345769,263.68116790193255,394.86733719749895,
AF3,456.4462781449646,280.76867578806724,222.1550163697429,458.51245554223397,325.5528542316681,
T7,352.2156853357076,326.89653569897575,255.62480065033003,644.5775094180343,342.5227050789045,
Pz,71.86771075020812,169.80790080724475,294.9484788995403,102.82787987710667,124.5555173980554,
T8,105.8259811503222,130.27127578429955,211.55142670585258,222.16707035391656,253.41114841458023,
AF4,327.4854276054167,202.55255964226066,567.7431909345769,263.68116790193255,394.86733719749895,
AF3,456.4462781449646,280.76867578806724,222.1550163697429,458.51245554223397,325.5528542316681,
T7,352.2156853357076,326.89653569897575,255.62480065033003,644.5775094180343,342.5227050789045,
Pz,71.86771075020812,169.80790080724475,294.9484788995403,102.82787987710667,124.5555173980554,
T8,105.8259811503222,130.27127578429955,211.55142670585258,222.16707035391656,253.41114841458023,
AF4,327.4854276054167,202.55255964226066,567.7431909345769,263.68116790193255,394.86733719749895,
AF3,456.4462781449646,280.76867578806724,222.1550163697429,458.51245554223397,325.5528542316681,
T7,352.2156853357076,326.89653569897575,255.62480065033003,644.5775094180343,342.5227050789045,
Pz,71.86771075020812,169.80790080724475,294.9484788995403,102.82787987710667,124.5555173980554,
T8,105.8259811503222,130.27127578429955,211.55142670585258,222.16707035391656,253.41114841458023,
AF4,327.4854276054167,202.55255964226066,567.7431909345769,263.68116790193255,394.86733719749895,
AF3,456.4462781449646,280.76867578806724,222.1550163697429,458.51245554223397,325.5528542316681,
T7,352.2156853357076,326.89653569897575,255.62480065033003,644.5775094180343,342.5227050789045,
Pz,71.86771075020812,169.80790080724475,294.9484788995403,102.82787987710667,124.5555173980554,
T8,105.8259811503222,130.27127578429955,211.55142670585258,222.16707035391656,253.41114841458023,
AF4,327.4854276054167,202.55255964226066,567.7431909345769,263.68116790193255,394.86733719749895,
AF3,456.4462781449646,280.76867578806724,222.1550163697429,458.51245554223397,325.5528542316681,
T7,352.2156853357076,326.89653569897575,255.62480065033003,644.5775094180343,342.5227050789045,
Pz,71.86771075020812,169.80790080724475,294.9484788995403,102.82787987710667,124.5555173980554,
T8,105.8259811503222,130.27127578429955,211.55142670585258,222.16707035391656,253.41114841458023,
AF4,327.4854276054167,202.55255964226066,567.7431909345769,263.68116790193255,394.86733719749895,
AF3,456.4462781449646,280.76867578806724,222.1550163697429,458.51245554223397,325.5528542316681,
T7,352.2156853357076,326.89653569897575,255.62480065033003,644.5775094180343,342.5227050789045,
Pz,71.86771075020812,169.80790080724475,294.9484788995403,102.82787987710667,124.5555173980554,
T8,105.8259811503222,130.27127578429955,211.55142670585258,222.16707035391656,253.41114841458023,
AF4,327.4854276054167,202.55255964226066,567.7431909345769,263.68116790193255,394.86733719749895,
AF3,456.4462781449646,280.76867578806724,222.1550163697429,458.51245554223397,325.5528542316681,
T7,352.2156853357076,326.89653569897575,255.62480065033003,644.5775094180343,342.5227050789045,
Pz,71.86771075020812,169.80790080724475,294.9484788995403,102.82787987710667,124.5555173980554,
T8,105.8259811503222,130.27127578429955,211.55142670585258,222.16707035391656,253.41114841458023,
AF4,327.4854276054167,202.55255964226066,567.7431909345769,263.68116790193255,394.86733719749895,
AF3,456.4462781449646,280.76867578806724,222.1550163697429,458.51245554223397,325.5528542316681,
T7,352.2156853357076,326.89653569897575,255.62480065033003,644.5775094180343,342.5227050789045,
Pz,71.86771075020812,169.80790080724475,294.9484788995403,102.82787987710667,124.5555173980554,
T8,105.8259811503222,130.27127578429955,211.55142670585258,222.16707035391656,253.41114841458023,
AF4,327.4854276054167,202.55255964226066,567.7431909345769,263.68116790193255,394.86733719749895,
AF3,456.4462781449646,280.76867578806724,222.1550163697429,458.51245554223397,325.5528542316681,
T7,352.2156853357076,326.89653569897575,255.62480065033003,644.5775094180343,342.5227050789045,
Pz,71.86771075020812,169.80790080724475,294.9484788995403,102.82787987710667,124.5555173980554,
T8,105.8259811503222,130.27127578429955,211.55142670585258,222.16707035391656,253.41114841458023,
AF4,327.4854276054167,202.55255964226066,567.7431909345769,263.68116790193255,394.86733719749895,
AF3,456.4462781449646,280.76867578806724,222.1550163697429,458.51245554223397,325.5528542316681,
T7,352.2156853357076,326.89653569897575,255.62480065033003,644.5775094180343,342.5227050789045,
Pz,71.86771075020812,169.80790080724475,294.9484788995403,102.82787987710667,124.5555173980554,
T8,105.8259811503222,130.27127578429955,211.55142670585258,222.16707035391656,253.41114841458023,
AF4,327.4854276054167,202.55255964226066,567.7431909345769,263.68116790193255,394.86733719749895,
AF3,456.4462781449646,280.76867578806724,222.1550163697429,458.51245554223397,325.5528542316681,
T7,352.2156853357076,326.89653569897575,255.62480065033003,644.5775094180343,342.5227050789045,
Pz,71.86771075020812,169.80790080724475,294.9484788995403,102.82787987710667,124.5555173980554,
T8,105.8259811503222,130.27127578429955,211.55142670585258,222.16707035391656,253.41114841458023,
AF4,327.4854276054167,202.55255964226066,567.7431909345769,263.68116790193255,394.86733719749895,
AF3,456.4462781449646,280.76867578806724,222.1550163697429,458.51245554223397,325.5528542316681,
T7,352.2156853357076,326.89653569897575,255.62480065033003,644.5775094180343,342.5227050789045,
Pz,71.86771075020812,169.80790080724475,294.9484788995403,102.82787987710667,124.5555173980554,
T8,105.8259811503222,130.27127578429955,211.55142670585258,222.16707035391656,253.41114841458023,
AF4,327.4854276054167,202.55255964226066,567.7431909345769,263.68116790193255,394.86733719749895,
AF3,456.4462781449646,280.76867578806724,222.1550163697429,458.51245554223397,325.5528542316681,
T7,352.2156853357076,326.89653569897575,255.62480065033003,644.5775094180343,342.5227050789045,
Pz,71.86771075020812,169.80790080724475,294.9484788995403,102.82787987710667,124.5555173980554,
T8,105.8259811503222,130.27127578429955,211.55142670585258,222.16707035391656,253.41114841458023,
AF4,327.4854276054167,202.55255964226066,567.7431909345769,263.68116790193255,394.86733719749895,
AF3,456.4462781449646,280.76867578806724,222.1550163697429,458.51245554223397,325.5528542316681,
T7,352.2156853357076,326.89653569897575,255.62480065033003,644.5775094180343,342.5227050789045,
Pz,71.86771075020812,169.80790080724475,294.9484788995403,102.82787987710667,124.5555173980554,
T8,105.8259811503222,130.27127578429955,211.55142670585258,222.16707035391656,253.41114841458023,
AF4,327.4854276054167,202.55255964226066,567.7431909345769,263.68116790193255,394.86733719749895,
AF3,456.4462781449646,280.76867578806724,222.1550163697429,458.51245554223397,325.5528542316681,
T7,352.2156853357076,326.89653569897575,255.62480065033003,644.5775094180343,342.5227050789045,
Pz,71.86771075020812,169.80790080724475,294.9484788995403,102.82787987710667,124.5555173980554,
T8,105.8259811503222,130.27127578429955,211.55142670585258,222.16707035391656,253.41114841458023,
AF4,327.4854276054167,202.55255964226066,567.7431909345769,263.68116790193255,394.86733719749895,
AF3,456.4462781449646,280.76867578806724,222.1550163697429,458.51245554223397,325.5528542316681,
T7,352.2156853357076,326.89653569897575,255.62480065033003,644.5775094180343,342.5227050789045,
Pz,71.86771075020812,169.80790080724475,294.9484788995403,102.82787987710667,124.5555173980554,
T8,105.8259811503222,130.27127578429955,211.55142670585258,222.16707035391656,253.41114841458023,
AF4,327.4854276054167,202.55255964226066,567.7431909345769,263.68116790193255,394.86733719749895,
AF3,456.4462781449646,280.76867578806724,222.1550163697429,458.51245554223397,325.5528542316681,
T7,352.2156853357076,326.89653569897575,255.62480065033003,644.5775094180343,342.5227050789045,
Pz,71.86771075020812,169.80790080724475,294.9484788995403,102.82787987710667,124.5555173980554,
T8,105.8259811503222,130.27127578429955,211.55142670585258,222.16707035391656,253.41114841458023,
AF4,327.4854276054167,202.55255964226066,567.7431909345769,263.68116790193255,394.86733719749895,
AF3,456.4462781449646,280.76867578806724,222.1550163697429,458.51245554223397,325.5528542316681,
T7,352.2156853357076,326.89653569897575,255.62480065033003,644.5775094180343,342.5227050789045,
Pz,71.86771075020812,169.80790080724475,294.9484788995403,102.82787987710667,124.5555173980554,
T8,105.8259811503222,130.27127578429955,211.55142670585258,222.16707035391656,253.41114841458023,
AF4,327.4854276054167,202.55255964226066,567.7431909345769,263.68116790193255,394.86733719749895,
AF3,456.4462781449646,280.76867578806724,222.1550163697429,458.51245554223397,325.5528542316681,
T7,352.2156853357076,326.89653569897575,255.62480065033003,644.5775094180343,342.5227050789045,
Pz,71.86771075020812,169.80790080724475,294.9484788995403,102.82787987710667,124.5555173980554,
T8,105.8259811503222,130.27127578429955,211.55142670585258,222.16707035391656,253.41114841458023,
AF4,327.4854276054167,202.55255964226066,567.7431909345769,263.68116790193255,394.86733719749895,
AF3,456.4462781449646,280.76867578806724,222.1550163697429,458.51245554223397,325.5528542316681,
T7,352.2156853357076,326.89653569897575,255.62480065033003,644.5775094180343,342.5227050789045,
Pz,71.86771075020812,169.80790080724475,294.9484788995403,102.82787987710667,124.5555173980554,
T8,105.8259811503222,130.27127578429955,211.55142670585258,222.16707035391656,253.41114841458023,
AF4,327.4854276054167,202.55255964226066,567.7431909345769,263.68116790193255,394.86733719749895,
AF3,456.4462781449646,280.76867578806724,222.1550163697429,458.51245554223397,325.5528542316681,
T7,352.2156853357076,326.89653569897575,255.62480065033003,644.5775094180343,342.5227050789045,
Pz,71.86771075020812,169.80790080724475,294.9484788995403,102.82787987710667,124.5555173980554,
T8,105.8259811503222,130.27127578429955,211.55142670585258,222.16707035391656,253.41114841458023,
AF4,327.4854276054167,202.55255964226066,567.7431909345769,263.68116790193255,394.86733719749895,
AF3,456.4462781449646,280.76867578806724,222.1550163697429,458.51245554223397,325.5528542316681,
T7,352.2156853357076,326.89653569897575,255.62480065033003,644.5775094180343,342.5227050789045,
Pz,71.86771075020812,169.80790080724475,294.9484788995403,102.82787987710667,124.5555173980554,
T8,105.8259811503222,130.27127578429955,211.55142670585258,222.16707035391656,253.41114841458023,
AF4,327.4854276054167,202.55255964226066,567.7431909345769,263.68116790193255,394.86733719749895,
AF3,456.4462781449646,280.76867578806724,222.1550163697429,458.51245554223397,325.5528542316681,
T7,352.2156853357076,326.89653569897575,255.62480065033003,644.5775094180343,342.5227050789045,
Pz,71.86771075020812,169.80790080724475,294.9484788995403,102.82787987710667,124.5555173980554,
T8,105.8259811503222,130.27127578429955,211.55142670585258,222.16707035391656,253.41114841458023,
AF4,327.4854276054167,202.55255964226066,567.7431909345769,263.68116790193255,394.86733719749895,
AF3,456.4462781449646,280.76867578806724,222.1550163697429,458.51245554223397,325.5528542316681,
T7,352.2156853357076,326.89653569897575,255.62480065033003,644.5775094180343,342.5227050789045,
Pz,71.86771075020812,169.80790080724475,294.9484788995403,102.82787987710667,124.5555173980554,
T8,105.8259811503222,130.27127578429955,211.55142670585258,222.16707035391656,253.41114841458023,
AF4,327.4854276054167,202.55255964226066,567.7431909345769,263.68116790193255,394.86733719749895,
AF3,456.4462781449646,280.76867578806724,222.1550163697429,458.51245554223397,325.5528542316681,
T7,352.2156853357076,326.89653569897575,255.62480065033003,644.5775094180343,342.5227050789045,
Pz,71.86771075020812,169.80790080724475,294.9484788995403,102.82787987710667,124.5555173980554,
T8,105.8259811503222,130.27127578429955,211.55142670585258,222.16707035391656,253.41114841458023,
AF4,327.4854276054167,202.55255964226066,567.7431909345769,263.68116790193255,394.86733719749895,
AF3,456.4462781449646,280.76867578806724,222.1550163697429,458.51245554223397,325.5528542316681,
T7,352.2156853357076,326.89653569897575,255.62480065033003,644.5775094180343,342.5227050789045,
Pz,71.86771075020812,169.80790080724475,294.9484788995403,102.82787987710667,124.5555173980554,
T8,105.8259811503222,130.27127578429955,211.55142670585258,222.16707035391656,253.41114841458023,
AF4,327.4854276054167,202.55255964226066,567.7431909345769,263.68116790193255,394.86733719749895,
AF3,456.4462781449646,280.76867578806724,222.1550163697429,458.51245554223397,325.5528542316681,
T7,352.2156853357076,326.89653569897575,255.62480065033003,644.5775094180343,342.5227050789045,
Pz,71.86771075020812,169.80790080724475,294.9484788995403,102.82787987710667,124.5555173980554,
T8,105.8259811503222,130.27127578429955,211.55142670585258,222.16707035391656,253.41114841458023,
AF4,327.4854276054167,202.55255964226066,567.7431909345769,263.68116790193255,394.86733719749895,
AF3,456.4462781449646,280.76867578806724,222.1550163697429,458.51245554223397,325.5528542316681,
T7,352.2156853357076,326.89653569897575,255.62480065033003,644.5775094180343,342.5227050789045,
Pz,71.86771075020812,169.80790080724475,294.9484788995403,102.82787987710667,124.5555173980554,
T8,105.8259811503222,130.27127578429955,211.55142670585258,222.16707035391656,253.41114841458023,
AF4,327.4854276054167,202.55255964226066,567.7431909345769,263.68116790193255,394.86733719749895,
AF3,456.4462781449646,280.76867578806724,222.1550163697429,458.51245554223397,325.5528542316681,
T7,352.2156853357076,326.89653569897575,255.62480065033003,644.5775094180343,342.5227050789045,
Pz,71.86771075020812,169.80790080724475,294.9484788995403,102.82787987710667,124.5555173980554,
T8,105.8259811503222,130.27127578429955,211.55142670585258,222.16707035391656,253.41114841458023,
AF4,327.4854276054167,202.55255964226066,567.7431909345769,263.68116790193255,394.86733719749895,
AF3,456.4462781449646,280.76867578806724,222.1550163697429,458.51245554223397,325.5528542316681,
T7,352.2156853357076,326.89653569897575,255.62480065033003,644.5775094180343,342.5227050789045,
Pz,71.86771075020812,169.80790080724475,294.9484788995403,102.82787987710667,124.5555173980554,
T8,105.8259811503222,130.27127578429955,211.55142670585258,222.16707035391656,253.41114841458023,
AF4,327.4854276054167,202.55255964226066,567.7431909345769,263.68116790193255,394.86733719749895,
AF3,456.4462781449646,280.76867578806724,222.1550163697429,458.51245554223397,325.5528542316681,
T7,352.2156853357076,326.89653569897575,255.62480065033003,644.5775094180343,342.5227050789045,
Pz,71.86771075020812,169.80790080724475,294.9484788995403,102.82787987710667,124.5555173980554,
T8,105.8259811503222,130.27127578429955,211.55142670585258,222.16707035391656,253.41114841458023,
AF4,327.4854276054167,202.55255964226066,567.7431909345769,263.68116790193255,394.86733719749895,
AF3,456.4462781449646,280.76867578806724,222.1550163697429,458.51245554223397,325.5528542316681,
T7,352.2156853357076,326.89653569897575,255.62480065033003,644.5775094180343,342.5227050789045,
Pz,71.86771075020812,169.80790080724475,294.9484788995403,102.82787987710667,124.5555173980554,
T8,105.8259811503222,130.27127578429955,211.55142670585258,222.16707035391656,253.41114841458023,
AF4,327.4854276054167,202.55255964226066,567.7431909345769,263.68116790193255,394.86733719749895,
AF3,456.4462781449646,280.76867578806724,222.1550163697429,458.51245554223397,325.5528542316681,
T7,352.2156853357076,326.89653569897575,255.62480065033003,644.5775094180343,342.5227050789045,
Pz,71.86771075020812,169.80790080724475,294.9484788995403,102.82787987710667,124.5555173980554,
T8,105.8259811503222,130.27127578429955,211.55142670585258,222.16707035391656,253.41114841458023,
AF4,327.4854276054167,202.55255964226066,567.7431909345769,263.68116790193255,394.86733719749895,
AF3,456.4462781449646,280.76867578806724,222.1550163697429,458.51245554223397,325.5528542316681,
T7,352.2156853357076,326.89653569897575,255.62480065033003,644.5775094180343,342.5227050789045,
Pz,71.86771075020812,169.80790080724475,294.9484788995403,102.82787987710667,124.5555173980554,
T8,105.8259811503222,130.27127578429955,211.55142670585258,222.16707035391656,253.41114841458023,
AF4,327.4854276054167,202.55255964226066,567.7431909345769,263.68116790193255,394.86733719749895,
AF3,456.4462781449646,280.76867578806724,222.1550163697429,458.51245554223397,325.5528542316681,
T7,352.2156853357076,326.89653569897575,255.62480065033003,644.5775094180343,342.5227050789045,
Pz,71.86771075020812,169.80790080724475,294.9484788995403,102.82787987710667,124.5555173980554,
T8,105.8259811503222,130.27127578429955,211.55142670585258,222.16707035391656,253.41114841458023,
AF4,327.4854276054167,202.55255964226066,567.7431909345769,263.68116790193255,394.86733719749895,
AF3,456.4462781449646,280.76867578806724,222.1550163697429,458.51245554223397,325.5528542316681,
T7,352.2156853357076,326.89653569897575,255.62480065033003,644.5775094180343,342.5227050789045,
Pz,71.86771075020812,169.80790080724475,294.9484788995403,102.82787987710667,124.5555173980554,
T8,105.8259811503222,130.27127578429955,211.55142670585258,222.16707035391656,253.41114841458023,
AF4,327.4854276054167,202.55255964226066,567.7431909345769,263.68116790193255,394.86733719749895,
AF3,456.4462781449646,280.76867578806724,222.1550163697429,458.51245554223397,325.5528542316681,
T7,352.2156853357076,326.89653569897575,255.62480065033003,644.5775094180343,342.5227050789045,
Pz,71.86771075020812,169.80790080724475,294.9484788995403,102.82787987710667,124.5555173980554,
T8,105.8259811503222,130.27127578429955,211.55142670585258,222.16707035391656,253.41114841458023,
AF4,327.4854276054167,202.55255964226066,567.7431909345769,263.68116790193255,394.86733719749895,
AF3,456.4462781449646,280.76867578806724,222.1550163697429,458.51245554223397,325.5528542316681,
T7,352.2156853357076,326.89653569897575,255.62480065033003,644.5775094180343,342.5227050789045,
Pz,71.86771075020812,169.80790080724475,294.9484788995403,102.82787987710667,124.5555173980554,
T8,105.8259811503222,130.27127578429955,211.55142670585258,222.16707035391656,253.41114841458023,
AF4,327.4854276054167,202.55255964226066,567.7431909345769,263.68116790193255,394.86733719749895,
AF3,456.4462781449646,280.76867578806724,222.1550163697429,458.51245554223397,325.5528542316681,
T7,352.2156853357076,326.89653569897575,255.62480065033003,644.5775094180343,342.5227050789045,
Pz,71.86771075020812,169.80790080724475,294.9484788995403,102.82787987710667,124.5555173980554,
T8,105.8259811503222,130.27127578429955,211.55142670585258,222.16707035391656,253.41114841458023,
AF4,327.4854276054167,202.55255964226066,567.7431909345769,263.68116790193255,394.86733719749895,
AF3,456.4462781449646,280.76867578806724,222.1550163697429,458.51245554223397,325.5528542316681,
T7,352.2156853357076,326.89653569897575,255.62480065033003,644.5775094180343,342.5227050789045,
Pz,71.86771075020812,169.80790080724475,294.9484788995403,102.82787987710667,124.5555173980554,
T8,105.8259811503222,130.27127578429955,211.55142670585258,222.16707035391656,253.41114841458023,
AF4,327.4854276054167,202.55255964226066,567.7431909345769,263.68116790193255,394.86733719749895,
AF3,456.4462781449646,280.76867578806724,222.1550163697429,458.51245554223397,325.5528542316681,
T7,352.2156853357076,326.89653569897575,255.62480065033003,644.5775094180343,342.5227050789045,
Pz,71.86771075020812,169.80790080724475,294.9484788995403,102.82787987710667,124.5555173980554,
T8,105.8259811503222,130.27127578429955,211.55142670585258,222.16707035391656,253.41114841458023,
AF4,327.4854276054167,202.55255964226066,567.7431909345769,263.68116790193255,394.86733719749895,
AF3,456.4462781449646,280.76867578806724,222.1550163697429,458.51245554223397,325.5528542316681,
T7,352.2156853357076,326.89653569897575,255.62480065033003,644.5775094180343,342.5227050789045,
Pz,71.86771075020812,169.80790080724475,294.9484788995403,102.82787987710667,124.5555173980554,
T8,105.8259811503222,130.27127578429955,211.55142670585258,222.16707035391656,253.41114841458023,
AF4,327.4854276054167,202.55255964226066,567.7431909345769,263.68116790193255,394.86733719749895,
AF3,456.4462781449646,280.76867578806724,222.1550163697429,458.51245554223397,325.5528542316681,
T7,352.2156853357076,326.89653569897575,255.62480065033003,644.5775094180343,342.5227050789045,
Pz,71.86771075020812,169.80790080724475,294.9484788995403,102.82787987710667,124.5555173980554,
T8,105.8259811503222,130.27127578429955,211.55142670585258,222.16707035391656,253.41114841458023,
AF4,327.4854276054167,202.55255964226066,567.7431909345769,263.68116790193255,394.86733719749895,
AF3,456.4462781449646,280.76867578806724,222.1550163697429,458.51245554223397,325.5528542316681,
T7,352.2156853357076,326.89653569897575,255.62480065033003,644.5775094180343,342.5227050789045,
Pz,71.86771075020812,169.80790080724475,294.9484788995403,102.82787987710667,124.5555173980554,
T8,105.8259811503222,130.27127578429955,211.55142670585258,222.16707035391656,253.41114841458023,
AF4,327.4854276054167,202.55255964226066,567.7431909345769,263.68116790193255,394.86733719749895,
AF3,260.23576305883955,331.1952179502653,178.53878785214445,210.88576910666936,275.2550043544277,
T7,272.3763493850504,381.6583473336005,637.0742795890337,336.2606278246567,327.39999736724764,
Pz,138.9191838965504,161.87384084505607,216.16929769694184,106.27080883726778,160.39177065773205,
T8,185.9979237946512,260.3653103157406,320.67830200870736,235.0708041831807,346.4255643855733,
AF4,233.50439477702105,209.110373902967,199.45151067415347,206.51581661422446,362.57292767139523,
AF3,260.23576305883955,331.1952179502653,178.53878785214445,210.88576910666936,275.2550043544277,
T7,272.3763493850504,381.6583473336005,637.0742795890337,336.2606278246567,327.39999736724764,
Pz,138.9191838965504,161.87384084505607,216.16929769694184,106.27080883726778,160.39177065773205,
T8,185.9979237946512,260.3653103157406,320.67830200870736,235.0708041831807,346.4255643855733,
AF4,233.50439477702105,209.110373902967,199.45151067415347,206.51581661422446,362.57292767139523,
AF3,260.23576305883955,331.1952179502653,178.53878785214445,210.88576910666936,275.2550043544277,
T7,272.3763493850504,381.6583473336005,637.0742795890337,336.2606278246567,327.39999736724764,
Pz,138.9191838965504,161.87384084505607,216.16929769694184,106.27080883726778,160.39177065773205,
T8,185.9979237946512,260.3653103157406,320.67830200870736,235.0708041831807,346.4255643855733,
AF4,233.50439477702105,209.110373902967,199.45151067415347,206.51581661422446,362.57292767139523,
AF3,260.23576305883955,331.1952179502653,178.53878785214445,210.88576910666936,275.2550043544277,
T7,272.3763493850504,381.6583473336005,637.0742795890337,336.2606278246567,327.39999736724764,
Pz,138.9191838965504,161.87384084505607,216.16929769694184,106.27080883726778,160.39177065773205,
T8,185.9979237946512,260.3653103157406,320.67830200870736,235.0708041831807,346.4255643855733,
AF4,233.50439477702105,209.110373902967,199.45151067415347,206.51581661422446,362.57292767139523,
AF3,260.23576305883955,331.1952179502653,178.53878785214445,210.88576910666936,275.2550043544277,
T7,272.3763493850504,381.6583473336005,637.0742795890337,336.2606278246567,327.39999736724764,
Pz,138.9191838965504,161.87384084505607,216.16929769694184,106.27080883726778,160.39177065773205,
T8,185.9979237946512,260.3653103157406,320.67830200870736,235.0708041831807,346.4255643855733,
AF4,233.50439477702105,209.110373902967,199.45151067415347,206.51581661422446,362.57292767139523,
AF3,260.23576305883955,331.1952179502653,178.53878785214445,210.88576910666936,275.2550043544277,
T7,272.3763493850504,381.6583473336005,637.0742795890337,336.2606278246567,327.39999736724764,
Pz,138.9191838965504,161.87384084505607,216.16929769694184,106.27080883726778,160.39177065773205,
T8,185.9979237946512,260.3653103157406,320.67830200870736,235.0708041831807,346.4255643855733,
AF4,233.50439477702105,209.110373902967,199.45151067415347,206.51581661422446,362.57292767139523,
AF3,260.23576305883955,331.1952179502653,178.53878785214445,210.88576910666936,275.2550043544277,
T7,272.3763493850504,381.6583473336005,637.0742795890337,336.2606278246567,327.39999736724764,
Pz,138.9191838965504,161.87384084505607,216.16929769694184,106.27080883726778,160.39177065773205,
T8,185.9979237946512,260.3653103157406,320.67830200870736,235.0708041831807,346.4255643855733,
AF4,233.50439477702105,209.110373902967,199.45151067415347,206.51581661422446,362.57292767139523,
AF3,260.23576305883955,331.1952179502653,178.53878785214445,210.88576910666936,275.2550043544277,
T7,272.3763493850504,381.6583473336005,637.0742795890337,336.2606278246567,327.39999736724764,
Pz,138.9191838965504,161.87384084505607,216.16929769694184,106.27080883726778,160.39177065773205,
T8,185.9979237946512,260.3653103157406,320.67830200870736,235.0708041831807,346.4255643855733,
AF4,233.50439477702105,209.110373902967,199.45151067415347,206.51581661422446,362.57292767139523,
AF3,260.23576305883955,331.1952179502653,178.53878785214445,210.88576910666936,275.2550043544277,
T7,272.3763493850504,381.6583473336005,637.0742795890337,336.2606278246567,327.39999736724764,
Pz,138.9191838965504,161.87384084505607,216.16929769694184,106.27080883726778,160.39177065773205,
T8,185.9979237946512,260.3653103157406,320.67830200870736,235.0708041831807,346.4255643855733,
AF4,233.50439477702105,209.110373902967,199.45151067415347,206.51581661422446,362.57292767139523,
AF3,260.23576305883955,331.1952179502653,178.53878785214445,210.88576910666936,275.2550043544277,
T7,272.3763493850504,381.6583473336005,637.0742795890337,336.2606278246567,327.39999736724764,
Pz,138.9191838965504,161.87384084505607,216.16929769694184,106.27080883726778,160.39177065773205,
T8,185.9979237946512,260.3653103157406,320.67830200870736,235.0708041831807,346.4255643855733,
AF4,233.50439477702105,209.110373902967,199.45151067415347,206.51581661422446,362.57292767139523,
AF3,260.23576305883955,331.1952179502653,178.53878785214445,210.88576910666936,275.2550043544277,
T7,272.3763493850504,381.6583473336005,637.0742795890337,336.2606278246567,327.39999736724764,
Pz,138.9191838965504,161.87384084505607,216.16929769694184,106.27080883726778,160.39177065773205,
T8,185.9979237946512,260.3653103157406,320.67830200870736,235.0708041831807,346.4255643855733,
AF4,233.50439477702105,209.110373902967,199.45151067415347,206.51581661422446,362.57292767139523,
AF3,260.23576305883955,331.1952179502653,178.53878785214445,210.88576910666936,275.2550043544277,
T7,272.3763493850504,381.6583473336005,637.0742795890337,336.2606278246567,327.39999736724764,
Pz,138.9191838965504,161.87384084505607,216.16929769694184,106.27080883726778,160.39177065773205,
T8,185.9979237946512,260.3653103157406,320.67830200870736,235.0708041831807,346.4255643855733,
AF4,233.50439477702105,209.110373902967,199.45151067415347,206.51581661422446,362.57292767139523,
AF3,260.23576305883955,331.1952179502653,178.53878785214445,210.88576910666936,275.2550043544277,
T7,272.3763493850504,381.6583473336005,637.0742795890337,336.2606278246567,327.39999736724764,
Pz,138.9191838965504,161.87384084505607,216.16929769694184,106.27080883726778,160.39177065773205,
T8,185.9979237946512,260.3653103157406,320.67830200870736,235.0708041831807,346.4255643855733,
AF4,233.50439477702105,209.110373902967,199.45151067415347,206.51581661422446,362.57292767139523,
AF3,260.23576305883955,331.1952179502653,178.53878785214445,210.88576910666936,275.2550043544277,
T7,272.3763493850504,381.6583473336005,637.0742795890337,336.2606278246567,327.39999736724764,
Pz,138.9191838965504,161.87384084505607,216.16929769694184,106.27080883726778,160.39177065773205,
T8,185.9979237946512,260.3653103157406,320.67830200870736,235.0708041831807,346.4255643855733,
AF4,233.50439477702105,209.110373902967,199.45151067415347,206.51581661422446,362.57292767139523,
AF3,260.23576305883955,331.1952179502653,178.53878785214445,210.88576910666936,275.2550043544277,
T7,272.3763493850504,381.6583473336005,637.0742795890337,336.2606278246567,327.39999736724764,
Pz,138.9191838965504,161.87384084505607,216.16929769694184,106.27080883726778,160.39177065773205,
T8,185.9979237946512,260.3653103157406,320.67830200870736,235.0708041831807,346.4255643855733,
AF4,233.50439477702105,209.110373902967,199.45151067415347,206.51581661422446,362.57292767139523,
AF3,260.23576305883955,331.1952179502653,178.53878785214445,210.88576910666936,275.2550043544277,
T7,272.3763493850504,381.6583473336005,637.0742795890337,336.2606278246567,327.39999736724764,
Pz,138.9191838965504,161.87384084505607,216.16929769694184,106.27080883726778,160.39177065773205,
T8,185.9979237946512,260.3653103157406,320.67830200870736,235.0708041831807,346.4255643855733,
AF4,233.50439477702105,209.110373902967,199.45151067415347,206.51581661422446,362.57292767139523,
AF3,260.23576305883955,331.1952179502653,178.53878785214445,210.88576910666936,275.2550043544277,
T7,272.3763493850504,381.6583473336005,637.0742795890337,336.2606278246567,327.39999736724764,
Pz,138.9191838965504,161.87384084505607,216.16929769694184,106.27080883726778,160.39177065773205,
T8,185.9979237946512,260.3653103157406,320.67830200870736,235.0708041831807,346.4255643855733,
AF4,233.50439477702105,209.110373902967,199.45151067415347,206.51581661422446,362.57292767139523,
AF3,260.23576305883955,331.1952179502653,178.53878785214445,210.88576910666936,275.2550043544277,
T7,272.3763493850504,381.6583473336005,637.0742795890337,336.2606278246567,327.39999736724764,
Pz,138.9191838965504,161.87384084505607,216.16929769694184,106.27080883726778,160.39177065773205,
T8,185.9979237946512,260.3653103157406,320.67830200870736,235.0708041831807,346.4255643855733,
AF4,233.50439477702105,209.110373902967,199.45151067415347,206.51581661422446,362.57292767139523,
AF3,260.23576305883955,331.1952179502653,178.53878785214445,210.88576910666936,275.2550043544277,
T7,272.3763493850504,381.6583473336005,637.0742795890337,336.2606278246567,327.39999736724764,
Pz,138.9191838965504,161.87384084505607,216.16929769694184,106.27080883726778,160.39177065773205,
T8,185.9979237946512,260.3653103157406,320.67830200870736,235.0708041831807,346.4255643855733,
AF4,233.50439477702105,209.110373902967,199.45151067415347,206.51581661422446,362.57292767139523,
AF3,260.23576305883955,331.1952179502653,178.53878785214445,210.88576910666936,275.2550043544277,
T7,272.3763493850504,381.6583473336005,637.0742795890337,336.2606278246567,327.39999736724764,
Pz,138.9191838965504,161.87384084505607,216.16929769694184,106.27080883726778,160.39177065773205,
T8,185.9979237946512,260.3653103157406,320.67830200870736,235.0708041831807,346.4255643855733,
AF4,233.50439477702105,209.110373902967,199.45151067415347,206.51581661422446,362.57292767139523,
AF3,260.23576305883955,331.1952179502653,178.53878785214445,210.88576910666936,275.2550043544277,
T7,272.3763493850504,381.6583473336005,637.0742795890337,336.2606278246567,327.39999736724764,
Pz,138.9191838965504,161.87384084505607,216.16929769694184,106.27080883726778,160.39177065773205,
T8,185.9979237946512,260.3653103157406,320.67830200870736,235.0708041831807,346.4255643855733,
AF4,233.50439477702105,209.110373902967,199.45151067415347,206.51581661422446,362.57292767139523,
AF3,260.23576305883955,331.1952179502653,178.53878785214445,210.88576910666936,275.2550043544277,
T7,272.3763493850504,381.6583473336005,637.0742795890337,336.2606278246567,327.39999736724764,
Pz,138.9191838965504,161.87384084505607,216.16929769694184,106.27080883726778,160.39177065773205,
T8,185.9979237946512,260.3653103157406,320.67830200870736,235.0708041831807,346.4255643855733,
AF4,233.50439477702105,209.110373902967,199.45151067415347,206.51581661422446,362.57292767139523,
AF3,260.23576305883955,331.1952179502653,178.53878785214445,210.88576910666936,275.2550043544277,
T7,272.3763493850504,381.6583473336005,637.0742795890337,336.2606278246567,327.39999736724764,
Pz,138.9191838965504,161.87384084505607,216.16929769694184,106.27080883726778,160.39177065773205,
T8,185.9979237946512,260.3653103157406,320.67830200870736,235.0708041831807,346.4255643855733,
AF4,233.50439477702105,209.110373902967,199.45151067415347,206.51581661422446,362.57292767139523,
AF3,260.23576305883955,331.1952179502653,178.53878785214445,210.88576910666936,275.2550043544277,
T7,272.3763493850504,381.6583473336005,637.0742795890337,336.2606278246567,327.39999736724764,
Pz,138.9191838965504,161.87384084505607,216.16929769694184,106.27080883726778,160.39177065773205,
T8,185.9979237946512,260.3653103157406,320.67830200870736,235.0708041831807,346.4255643855733,
AF4,233.50439477702105,209.110373902967,199.45151067415347,206.51581661422446,362.57292767139523,
AF3,260.23576305883955,331.1952179502653,178.53878785214445,210.88576910666936,275.2550043544277,
T7,272.3763493850504,381.6583473336005,637.0742795890337,336.2606278246567,327.39999736724764,
Pz,138.9191838965504,161.87384084505607,216.16929769694184,106.27080883726778,160.39177065773205,
T8,185.9979237946512,260.3653103157406,320.67830200870736,235.0708041831807,346.4255643855733,
AF4,233.50439477702105,209.110373902967,199.45151067415347,206.51581661422446,362.57292767139523,
AF3,260.23576305883955,331.1952179502653,178.53878785214445,210.88576910666936,275.2550043544277,
T7,272.3763493850504,381.6583473336005,637.0742795890337,336.2606278246567,327.39999736724764,
Pz,138.9191838965504,161.87384084505607,216.16929769694184,106.27080883726778,160.39177065773205,
T8,185.9979237946512,260.3653103157406,320.67830200870736,235.0708041831807,346.4255643855733,
AF4,233.50439477702105,209.110373902967,199.45151067415347,206.51581661422446,362.57292767139523,
AF3,260.23576305883955,331.1952179502653,178.53878785214445,210.88576910666936,275.2550043544277,
T7,272.3763493850504,381.6583473336005,637.0742795890337,336.2606278246567,327.39999736724764,
Pz,138.9191838965504,161.87384084505607,216.16929769694184,106.27080883726778,160.39177065773205,
T8,185.9979237946512,260.3653103157406,320.67830200870736,235.0708041831807,346.4255643855733,
AF4,233.50439477702105,209.110373902967,199.45151067415347,206.51581661422446,362.57292767139523,
AF3,260.23576305883955,331.1952179502653,178.53878785214445,210.88576910666936,275.2550043544277,
T7,272.3763493850504,381.6583473336005,637.0742795890337,336.2606278246567,327.39999736724764,
Pz,138.9191838965504,161.87384084505607,216.16929769694184,106.27080883726778,160.39177065773205,
T8,185.9979237946512,260.3653103157406,320.67830200870736,235.0708041831807,346.4255643855733,
AF4,233.50439477702105,209.110373902967,199.45151067415347,206.51581661422446,362.57292767139523,
AF3,260.23576305883955,331.1952179502653,178.53878785214445,210.88576910666936,275.2550043544277,
T7,272.3763493850504,381.6583473336005,637.0742795890337,336.2606278246567,327.39999736724764,
Pz,138.9191838965504,161.87384084505607,216.16929769694184,106.27080883726778,160.39177065773205,
T8,185.9979237946512,260.3653103157406,320.67830200870736,235.0708041831807,346.4255643855733,
AF4,233.50439477702105,209.110373902967,199.45151067415347,206.51581661422446,362.57292767139523,
AF3,260.23576305883955,331.1952179502653,178.53878785214445,210.88576910666936,275.2550043544277,
T7,272.3763493850504,381.6583473336005,637.0742795890337,336.2606278246567,327.39999736724764,
Pz,138.9191838965504,161.87384084505607,216.16929769694184,106.27080883726778,160.39177065773205,
