Channel , Theta ,Alpha ,Low beta ,High beta , Gamma 
AF3,507.2715497303895,596.911040014254,594.7373306117787,241.4144501723524,420.86899817785735,
T7,482.624613007704,701.3055878189266,1037.544358928465,385.6498293784168,509.0469293075226,
Pz,120.49422572082739,166.22700574746455,445.6363548635538,371.3375284470196,213.75274953962136,
T8,521.7188405203221,392.3942660630447,831.2618781559439,472.88683806654336,577.4774783518986,
AF4,294.7295712744814,650.8647057378455,195.12838483562916,469.5509760263113,356.5295355431754,
AF3,507.2715497303895,596.911040014254,594.7373306117787,241.4144501723524,420.86899817785735,
T7,482.624613007704,701.3055878189266,1037.544358928465,385.6498293784168,509.0469293075226,
Pz,120.49422572082739,166.22700574746455,445.6363548635538,371.3375284470196,213.75274953962136,
T8,521.7188405203221,392.3942660630447,831.2618781559439,472.88683806654336,577.4774783518986,
AF4,294.7295712744814,650.8647057378455,195.12838483562916,469.5509760263113,356.5295355431754,
AF3,507.2715497303895,596.911040014254,594.7373306117787,241.4144501723524,420.86899817785735,
T7,482.624613007704,701.3055878189266,1037.544358928465,385.6498293784168,509.0469293075226,
Pz,120.49422572082739,166.22700574746455,445.6363548635538,371.3375284470196,213.75274953962136,
T8,521.7188405203221,392.3942660630447,831.2618781559439,472.88683806654336,577.4774783518986,
AF4,294.7295712744814,650.8647057378455,195.12838483562916,469.5509760263113,356.5295355431754,
AF3,507.2715497303895,596.911040014254,594.7373306117787,241.4144501723524,420.86899817785735,
T7,482.624613007704,701.3055878189266,1037.544358928465,385.6498293784168,509.0469293075226,
Pz,120.49422572082739,166.22700574746455,445.6363548635538,371.3375284470196,213.75274953962136,
T8,521.7188405203221,392.3942660630447,831.2618781559439,472.88683806654336,577.4774783518986,
AF4,294.7295712744814,650.8647057378455,195.12838483562916,469.5509760263113,356.5295355431754,
AF3,507.2715497303895,596.911040014254,594.7373306117787,241.4144501723524,420.86899817785735,
T7,482.624613007704,701.3055878189266,1037.544358928465,385.6498293784168,509.0469293075226,
Pz,120.49422572082739,166.22700574746455,445.6363548635538,371.3375284470196,213.75274953962136,
T8,521.7188405203221,392.3942660630447,831.2618781559439,472.88683806654336,577.4774783518986,
AF4,294.7295712744814,650.8647057378455,195.12838483562916,469.5509760263113,356.5295355431754,
AF3,507.2715497303895,596.911040014254,594.7373306117787,241.4144501723524,420.86899817785735,
T7,482.624613007704,701.3055878189266,1037.544358928465,385.6498293784168,509.0469293075226,
Pz,120.49422572082739,166.22700574746455,445.6363548635538,371.3375284470196,213.75274953962136,
T8,521.7188405203221,392.3942660630447,831.2618781559439,472.88683806654336,577.4774783518986,
AF4,294.7295712744814,650.8647057378455,195.12838483562916,469.5509760263113,356.5295355431754,
AF3,507.2715497303895,596.911040014254,594.7373306117787,241.4144501723524,420.86899817785735,
T7,482.624613007704,701.3055878189266,1037.544358928465,385.6498293784168,509.0469293075226,
Pz,120.49422572082739,166.22700574746455,445.6363548635538,371.3375284470196,213.75274953962136,
T8,521.7188405203221,392.3942660630447,831.2618781559439,472.88683806654336,577.4774783518986,
AF4,294.7295712744814,650.8647057378455,195.12838483562916,469.5509760263113,356.5295355431754,
AF3,507.2715497303895,596.911040014254,594.7373306117787,241.4144501723524,420.86899817785735,
T7,482.624613007704,701.3055878189266,1037.544358928465,385.6498293784168,509.0469293075226,
Pz,120.49422572082739,166.22700574746455,445.6363548635538,371.3375284470196,213.75274953962136,
T8,521.7188405203221,392.3942660630447,831.2618781559439,472.88683806654336,577.4774783518986,
AF4,294.7295712744814,650.8647057378455,195.12838483562916,469.5509760263113,356.5295355431754,
AF3,507.2715497303895,596.911040014254,594.7373306117787,241.4144501723524,420.86899817785735,
T7,482.624613007704,701.3055878189266,1037.544358928465,385.6498293784168,509.0469293075226,
Pz,120.49422572082739,166.22700574746455,445.6363548635538,371.3375284470196,213.75274953962136,
T8,521.7188405203221,392.3942660630447,831.2618781559439,472.88683806654336,577.4774783518986,
AF4,294.7295712744814,650.8647057378455,195.12838483562916,469.5509760263113,356.5295355431754,
AF3,507.2715497303895,596.911040014254,594.7373306117787,241.4144501723524,420.86899817785735,
T7,482.624613007704,701.3055878189266,1037.544358928465,385.6498293784168,509.0469293075226,
Pz,120.49422572082739,166.22700574746455,445.6363548635538,371.3375284470196,213.75274953962136,
T8,521.7188405203221,392.3942660630447,831.2618781559439,472.88683806654336,577.4774783518986,
AF4,294.7295712744814,650.8647057378455,195.12838483562916,469.5509760263113,356.5295355431754,
AF3,507.2715497303895,596.911040014254,594.7373306117787,241.4144501723524,420.86899817785735,
T7,482.624613007704,701.3055878189266,1037.544358928465,385.6498293784168,509.0469293075226,
Pz,120.49422572082739,166.22700574746455,445.6363548635538,371.3375284470196,213.75274953962136,
T8,521.7188405203221,392.3942660630447,831.2618781559439,472.88683806654336,577.4774783518986,
AF4,294.7295712744814,650.8647057378455,195.12838483562916,469.5509760263113,356.5295355431754,
AF3,507.2715497303895,596.911040014254,594.7373306117787,241.4144501723524,420.86899817785735,
T7,482.624613007704,701.3055878189266,1037.544358928465,385.6498293784168,509.0469293075226,
Pz,120.49422572082739,166.22700574746455,445.6363548635538,371.3375284470196,213.75274953962136,
T8,521.7188405203221,392.3942660630447,831.2618781559439,472.88683806654336,577.4774783518986,
AF4,294.7295712744814,650.8647057378455,195.12838483562916,469.5509760263113,356.5295355431754,
AF3,507.2715497303895,596.911040014254,594.7373306117787,241.4144501723524,420.86899817785735,
T7,482.624613007704,701.3055878189266,1037.544358928465,385.6498293784168,509.0469293075226,
Pz,120.49422572082739,166.22700574746455,445.6363548635538,371.3375284470196,213.75274953962136,
T8,521.7188405203221,392.3942660630447,831.2618781559439,472.88683806654336,577.4774783518986,
AF4,294.7295712744814,650.8647057378455,195.12838483562916,469.5509760263113,356.5295355431754,
AF3,507.2715497303895,596.911040014254,594.7373306117787,241.4144501723524,420.86899817785735,
T7,482.624613007704,701.3055878189266,1037.544358928465,385.6498293784168,509.0469293075226,
Pz,120.49422572082739,166.22700574746455,445.6363548635538,371.3375284470196,213.75274953962136,
T8,521.7188405203221,392.3942660630447,831.2618781559439,472.88683806654336,577.4774783518986,
AF4,294.7295712744814,650.8647057378455,195.12838483562916,469.5509760263113,356.5295355431754,
AF3,507.2715497303895,596.911040014254,594.7373306117787,241.4144501723524,420.86899817785735,
T7,482.624613007704,701.3055878189266,1037.544358928465,385.6498293784168,509.0469293075226,
Pz,120.49422572082739,166.22700574746455,445.6363548635538,371.3375284470196,213.75274953962136,
T8,521.7188405203221,392.3942660630447,831.2618781559439,472.88683806654336,577.4774783518986,
AF4,294.7295712744814,650.8647057378455,195.12838483562916,469.5509760263113,356.5295355431754,
AF3,507.2715497303895,596.911040014254,594.7373306117787,241.4144501723524,420.86899817785735,
T7,482.624613007704,701.3055878189266,1037.544358928465,385.6498293784168,509.0469293075226,
Pz,120.49422572082739,166.22700574746455,445.6363548635538,371.3375284470196,213.75274953962136,
T8,521.7188405203221,392.3942660630447,831.2618781559439,472.88683806654336,577.4774783518986,
AF4,294.7295712744814,650.8647057378455,195.12838483562916,469.5509760263113,356.5295355431754,
AF3,507.2715497303895,596.911040014254,594.7373306117787,241.4144501723524,420.86899817785735,
T7,482.624613007704,701.3055878189266,1037.544358928465,385.6498293784168,509.0469293075226,
Pz,120.49422572082739,166.22700574746455,445.6363548635538,371.3375284470196,213.75274953962136,
T8,521.7188405203221,392.3942660630447,831.2618781559439,472.88683806654336,577.4774783518986,
AF4,294.7295712744814,650.8647057378455,195.12838483562916,469.5509760263113,356.5295355431754,
AF3,507.2715497303895,596.911040014254,594.7373306117787,241.4144501723524,420.86899817785735,
T7,482.624613007704,701.3055878189266,1037.544358928465,385.6498293784168,509.0469293075226,
Pz,120.49422572082739,166.22700574746455,445.6363548635538,371.3375284470196,213.75274953962136,
T8,521.7188405203221,392.3942660630447,831.2618781559439,472.88683806654336,577.4774783518986,
AF4,294.7295712744814,650.8647057378455,195.12838483562916,469.5509760263113,356.5295355431754,
AF3,507.2715497303895,596.911040014254,594.7373306117787,241.4144501723524,420.86899817785735,
T7,482.624613007704,701.3055878189266,1037.544358928465,385.6498293784168,509.0469293075226,
Pz,120.49422572082739,166.22700574746455,445.6363548635538,371.3375284470196,213.75274953962136,
T8,521.7188405203221,392.3942660630447,831.2618781559439,472.88683806654336,577.4774783518986,
AF4,294.7295712744814,650.8647057378455,195.12838483562916,469.5509760263113,356.5295355431754,
AF3,507.2715497303895,596.911040014254,594.7373306117787,241.4144501723524,420.86899817785735,
T7,482.624613007704,701.3055878189266,1037.544358928465,385.6498293784168,509.0469293075226,
Pz,120.49422572082739,166.22700574746455,445.6363548635538,371.3375284470196,213.75274953962136,
T8,521.7188405203221,392.3942660630447,831.2618781559439,472.88683806654336,577.4774783518986,
AF4,294.7295712744814,650.8647057378455,195.12838483562916,469.5509760263113,356.5295355431754,
AF3,507.2715497303895,596.911040014254,594.7373306117787,241.4144501723524,420.86899817785735,
T7,482.624613007704,701.3055878189266,1037.544358928465,385.6498293784168,509.0469293075226,
Pz,120.49422572082739,166.22700574746455,445.6363548635538,371.3375284470196,213.75274953962136,
T8,521.7188405203221,392.3942660630447,831.2618781559439,472.88683806654336,577.4774783518986,
AF4,294.7295712744814,650.8647057378455,195.12838483562916,469.5509760263113,356.5295355431754,
AF3,507.2715497303895,596.911040014254,594.7373306117787,241.4144501723524,420.86899817785735,
T7,482.624613007704,701.3055878189266,1037.544358928465,385.6498293784168,509.0469293075226,
Pz,120.49422572082739,166.22700574746455,445.6363548635538,371.3375284470196,213.75274953962136,
T8,521.7188405203221,392.3942660630447,831.2618781559439,472.88683806654336,577.4774783518986,
AF4,294.7295712744814,650.8647057378455,195.12838483562916,469.5509760263113,356.5295355431754,
AF3,507.2715497303895,596.911040014254,594.7373306117787,241.4144501723524,420.86899817785735,
T7,482.624613007704,701.3055878189266,1037.544358928465,385.6498293784168,509.0469293075226,
Pz,120.49422572082739,166.22700574746455,445.6363548635538,371.3375284470196,213.75274953962136,
T8,521.7188405203221,392.3942660630447,831.2618781559439,472.88683806654336,577.4774783518986,
AF4,294.7295712744814,650.8647057378455,195.12838483562916,469.5509760263113,356.5295355431754,
AF3,507.2715497303895,596.911040014254,594.7373306117787,241.4144501723524,420.86899817785735,
T7,482.624613007704,701.3055878189266,1037.544358928465,385.6498293784168,509.0469293075226,
Pz,120.49422572082739,166.22700574746455,445.6363548635538,371.3375284470196,213.75274953962136,
T8,521.7188405203221,392.3942660630447,831.2618781559439,472.88683806654336,577.4774783518986,
AF4,294.7295712744814,650.8647057378455,195.12838483562916,469.5509760263113,356.5295355431754,
AF3,507.2715497303895,596.911040014254,594.7373306117787,241.4144501723524,420.86899817785735,
T7,482.624613007704,701.3055878189266,1037.544358928465,385.6498293784168,509.0469293075226,
Pz,120.49422572082739,166.22700574746455,445.6363548635538,371.3375284470196,213.75274953962136,
T8,521.7188405203221,392.3942660630447,831.2618781559439,472.88683806654336,577.4774783518986,
AF4,294.7295712744814,650.8647057378455,195.12838483562916,469.5509760263113,356.5295355431754,
AF3,507.2715497303895,596.911040014254,594.7373306117787,241.4144501723524,420.86899817785735,
T7,482.624613007704,701.3055878189266,1037.544358928465,385.6498293784168,509.0469293075226,
Pz,120.49422572082739,166.22700574746455,445.6363548635538,371.3375284470196,213.75274953962136,
T8,521.7188405203221,392.3942660630447,831.2618781559439,472.88683806654336,577.4774783518986,
AF4,294.7295712744814,650.8647057378455,195.12838483562916,469.5509760263113,356.5295355431754,
AF3,507.2715497303895,596.911040014254,594.7373306117787,241.4144501723524,420.86899817785735,
T7,482.624613007704,701.3055878189266,1037.544358928465,385.6498293784168,509.0469293075226,
Pz,120.49422572082739,166.22700574746455,445.6363548635538,371.3375284470196,213.75274953962136,
T8,521.7188405203221,392.3942660630447,831.2618781559439,472.88683806654336,577.4774783518986,
AF4,294.7295712744814,650.8647057378455,195.12838483562916,469.5509760263113,356.5295355431754,
AF3,507.2715497303895,596.911040014254,594.7373306117787,241.4144501723524,420.86899817785735,
T7,482.624613007704,701.3055878189266,1037.544358928465,385.6498293784168,509.0469293075226,
Pz,120.49422572082739,166.22700574746455,445.6363548635538,371.3375284470196,213.75274953962136,
T8,521.7188405203221,392.3942660630447,831.2618781559439,472.88683806654336,577.4774783518986,
AF4,294.7295712744814,650.8647057378455,195.12838483562916,469.5509760263113,356.5295355431754,
AF3,507.2715497303895,596.911040014254,594.7373306117787,241.4144501723524,420.86899817785735,
T7,482.624613007704,701.3055878189266,1037.544358928465,385.6498293784168,509.0469293075226,
Pz,120.49422572082739,166.22700574746455,445.6363548635538,371.3375284470196,213.75274953962136,
T8,521.7188405203221,392.3942660630447,831.2618781559439,472.88683806654336,577.4774783518986,
AF4,294.7295712744814,650.8647057378455,195.12838483562916,469.5509760263113,356.5295355431754,
AF3,507.2715497303895,596.911040014254,594.7373306117787,241.4144501723524,420.86899817785735,
T7,482.624613007704,701.3055878189266,1037.544358928465,385.6498293784168,509.0469293075226,
Pz,120.49422572082739,166.22700574746455,445.6363548635538,371.3375284470196,213.75274953962136,
T8,521.7188405203221,392.3942660630447,831.2618781559439,472.88683806654336,577.4774783518986,
AF4,294.7295712744814,650.8647057378455,195.12838483562916,469.5509760263113,356.5295355431754,
AF3,507.2715497303895,596.911040014254,594.7373306117787,241.4144501723524,420.86899817785735,
T7,482.624613007704,701.3055878189266,1037.544358928465,385.6498293784168,509.0469293075226,
Pz,120.49422572082739,166.22700574746455,445.6363548635538,371.3375284470196,213.75274953962136,
T8,521.7188405203221,392.3942660630447,831.2618781559439,472.88683806654336,577.4774783518986,
AF4,294.7295712744814,650.8647057378455,195.12838483562916,469.5509760263113,356.5295355431754,
AF3,507.2715497303895,596.911040014254,594.7373306117787,241.4144501723524,420.86899817785735,
T7,482.624613007704,701.3055878189266,1037.544358928465,385.6498293784168,509.0469293075226,
Pz,120.49422572082739,166.22700574746455,445.6363548635538,371.3375284470196,213.75274953962136,
T8,521.7188405203221,392.3942660630447,831.2618781559439,472.88683806654336,577.4774783518986,
AF4,294.7295712744814,650.8647057378455,195.12838483562916,469.5509760263113,356.5295355431754,
AF3,430.4141774372738,988.7208808678663,437.6735862589499,385.47007930358717,568.0418745489293,
T7,464.659102910922,752.9110959341581,769.920473684186,725.1575923868709,476.9609455004853,
Pz,304.3357072996221,127.10135262371234,635.5831408816086,310.41932588243725,194.64216258677797,
T8,850.0903669032733,541.2282233607732,638.0510244129232,566.405947834612,425.01947639261766,
AF4,315.79204272962534,635.7138083028127,244.24029010082347,340.4833932419577,281.92975440971725,
AF3,430.4141774372738,988.7208808678663,437.6735862589499,385.47007930358717,568.0418745489293,
T7,464.659102910922,752.9110959341581,769.920473684186,725.1575923868709,476.9609455004853,
Pz,304.3357072996221,127.10135262371234,635.5831408816086,310.41932588243725,194.64216258677797,
T8,850.0903669032733,541.2282233607732,638.0510244129232,566.405947834612,425.01947639261766,
AF4,315.79204272962534,635.7138083028127,244.24029010082347,340.4833932419577,281.92975440971725,
AF3,430.4141774372738,988.7208808678663,437.6735862589499,385.47007930358717,568.0418745489293,
T7,464.659102910922,752.9110959341581,769.920473684186,725.1575923868709,476.9609455004853,
Pz,304.3357072996221,127.10135262371234,635.5831408816086,310.41932588243725,194.64216258677797,
T8,850.0903669032733,541.2282233607732,638.0510244129232,566.405947834612,425.01947639261766,
AF4,315.79204272962534,635.7138083028127,244.24029010082347,340.4833932419577,281.92975440971725,
AF3,430.4141774372738,988.7208808678663,437.6735862589499,385.47007930358717,568.0418745489293,
T7,464.659102910922,752.9110959341581,769.920473684186,725.1575923868709,476.9609455004853,
Pz,304.3357072996221,127.10135262371234,635.5831408816086,310.41932588243725,194.64216258677797,
T8,850.0903669032733,541.2282233607732,638.0510244129232,566.405947834612,425.01947639261766,
AF4,315.79204272962534,635.7138083028127,244.24029010082347,340.4833932419577,281.92975440971725,
AF3,430.4141774372738,988.7208808678663,437.6735862589499,385.47007930358717,568.0418745489293,
T7,464.659102910922,752.9110959341581,769.920473684186,725.1575923868709,476.9609455004853,
Pz,304.3357072996221,127.10135262371234,635.5831408816086,310.41932588243725,194.64216258677797,
T8,850.0903669032733,541.2282233607732,638.0510244129232,566.405947834612,425.01947639261766,
AF4,315.79204272962534,635.7138083028127,244.24029010082347,340.4833932419577,281.92975440971725,
AF3,430.4141774372738,988.7208808678663,437.6735862589499,385.47007930358717,568.0418745489293,
T7,464.659102910922,752.9110959341581,769.920473684186,725.1575923868709,476.9609455004853,
Pz,304.3357072996221,127.10135262371234,635.5831408816086,310.41932588243725,194.64216258677797,
T8,850.0903669032733,541.2282233607732,638.0510244129232,566.405947834612,425.01947639261766,
AF4,315.79204272962534,635.7138083028127,244.24029010082347,340.4833932419577,281.92975440971725,
AF3,430.4141774372738,988.7208808678663,437.6735862589499,385.47007930358717,568.0418745489293,
T7,464.659102910922,752.9110959341581,769.920473684186,725.1575923868709,476.9609455004853,
Pz,304.3357072996221,127.10135262371234,635.5831408816086,310.41932588243725,194.64216258677797,
T8,850.0903669032733,541.2282233607732,638.0510244129232,566.405947834612,425.01947639261766,
AF4,315.79204272962534,635.7138083028127,244.24029010082347,340.4833932419577,281.92975440971725,
AF3,430.4141774372738,988.7208808678663,437.6735862589499,385.47007930358717,568.0418745489293,
T7,464.659102910922,752.9110959341581,769.920473684186,725.1575923868709,476.9609455004853,
Pz,304.3357072996221,127.10135262371234,635.5831408816086,310.41932588243725,194.64216258677797,
T8,850.0903669032733,541.2282233607732,638.0510244129232,566.405947834612,425.01947639261766,
AF4,315.79204272962534,635.7138083028127,244.24029010082347,340.4833932419577,281.92975440971725,
AF3,430.4141774372738,988.7208808678663,437.6735862589499,385.47007930358717,568.0418745489293,
T7,464.659102910922,752.9110959341581,769.920473684186,725.1575923868709,476.9609455004853,
Pz,304.3357072996221,127.10135262371234,635.5831408816086,310.41932588243725,194.64216258677797,
T8,850.0903669032733,541.2282233607732,638.0510244129232,566.405947834612,425.01947639261766,
AF4,315.79204272962534,635.7138083028127,244.24029010082347,340.4833932419577,281.92975440971725,
AF3,430.4141774372738,988.7208808678663,437.6735862589499,385.47007930358717,568.0418745489293,
T7,464.659102910922,752.9110959341581,769.920473684186,725.1575923868709,476.9609455004853,
Pz,304.3357072996221,127.10135262371234,635.5831408816086,310.41932588243725,194.64216258677797,
T8,850.0903669032733,541.2282233607732,638.0510244129232,566.405947834612,425.01947639261766,
AF4,315.79204272962534,635.7138083028127,244.24029010082347,340.4833932419577,281.92975440971725,
AF3,430.4141774372738,988.7208808678663,437.6735862589499,385.47007930358717,568.0418745489293,
T7,464.659102910922,752.9110959341581,769.920473684186,725.1575923868709,476.9609455004853,
Pz,304.3357072996221,127.10135262371234,635.5831408816086,310.41932588243725,194.64216258677797,
T8,850.0903669032733,541.2282233607732,638.0510244129232,566.405947834612,425.01947639261766,
AF4,315.79204272962534,635.7138083028127,244.24029010082347,340.4833932419577,281.92975440971725,
AF3,430.4141774372738,988.7208808678663,437.6735862589499,385.47007930358717,568.0418745489293,
T7,464.659102910922,752.9110959341581,769.920473684186,725.1575923868709,476.9609455004853,
Pz,304.3357072996221,127.10135262371234,635.5831408816086,310.41932588243725,194.64216258677797,
T8,850.0903669032733,541.2282233607732,638.0510244129232,566.405947834612,425.01947639261766,
AF4,315.79204272962534,635.7138083028127,244.24029010082347,340.4833932419577,281.92975440971725,
AF3,430.4141774372738,988.7208808678663,437.6735862589499,385.47007930358717,568.0418745489293,
T7,464.659102910922,752.9110959341581,769.920473684186,725.1575923868709,476.9609455004853,
Pz,304.3357072996221,127.10135262371234,635.5831408816086,310.41932588243725,194.64216258677797,
T8,850.0903669032733,541.2282233607732,638.0510244129232,566.405947834612,425.01947639261766,
AF4,315.79204272962534,635.7138083028127,244.24029010082347,340.4833932419577,281.92975440971725,
AF3,430.4141774372738,988.7208808678663,437.6735862589499,385.47007930358717,568.0418745489293,
T7,464.659102910922,752.9110959341581,769.920473684186,725.1575923868709,476.9609455004853,
Pz,304.3357072996221,127.10135262371234,635.5831408816086,310.41932588243725,194.64216258677797,
T8,850.0903669032733,541.2282233607732,638.0510244129232,566.405947834612,425.01947639261766,
AF4,315.79204272962534,635.7138083028127,244.24029010082347,340.4833932419577,281.92975440971725,
AF3,430.4141774372738,988.7208808678663,437.6735862589499,385.47007930358717,568.0418745489293,
T7,464.659102910922,752.9110959341581,769.920473684186,725.1575923868709,476.9609455004853,
Pz,304.3357072996221,127.10135262371234,635.5831408816086,310.41932588243725,194.64216258677797,
T8,850.0903669032733,541.2282233607732,638.0510244129232,566.405947834612,425.01947639261766,
AF4,315.79204272962534,635.7138083028127,244.24029010082347,340.4833932419577,281.92975440971725,
AF3,430.4141774372738,988.7208808678663,437.6735862589499,385.47007930358717,568.0418745489293,
T7,464.659102910922,752.9110959341581,769.920473684186,725.1575923868709,476.9609455004853,
Pz,304.3357072996221,127.10135262371234,635.5831408816086,310.41932588243725,194.64216258677797,
T8,850.0903669032733,541.2282233607732,638.0510244129232,566.405947834612,425.01947639261766,
AF4,315.79204272962534,635.7138083028127,244.24029010082347,340.4833932419577,281.92975440971725,
AF3,430.4141774372738,988.7208808678663,437.6735862589499,385.47007930358717,568.0418745489293,
T7,464.659102910922,752.9110959341581,769.920473684186,725.1575923868709,476.9609455004853,
Pz,304.3357072996221,127.10135262371234,635.5831408816086,310.41932588243725,194.64216258677797,
T8,850.0903669032733,541.2282233607732,638.0510244129232,566.405947834612,425.01947639261766,
AF4,315.79204272962534,635.7138083028127,244.24029010082347,340.4833932419577,281.92975440971725,
AF3,430.4141774372738,988.7208808678663,437.6735862589499,385.47007930358717,568.0418745489293,
T7,464.659102910922,752.9110959341581,769.920473684186,725.1575923868709,476.9609455004853,
Pz,304.3357072996221,127.10135262371234,635.5831408816086,310.41932588243725,194.64216258677797,
T8,850.0903669032733,541.2282233607732,638.0510244129232,566.405947834612,425.01947639261766,
AF4,315.79204272962534,635.7138083028127,244.24029010082347,340.4833932419577,281.92975440971725,
AF3,430.4141774372738,988.7208808678663,437.6735862589499,385.47007930358717,568.0418745489293,
T7,464.659102910922,752.9110959341581,769.920473684186,725.1575923868709,476.9609455004853,
Pz,304.3357072996221,127.10135262371234,635.5831408816086,310.41932588243725,194.64216258677797,
T8,850.0903669032733,541.2282233607732,638.0510244129232,566.405947834612,425.01947639261766,
AF4,315.79204272962534,635.7138083028127,244.24029010082347,340.4833932419577,281.92975440971725,
AF3,430.4141774372738,988.7208808678663,437.6735862589499,385.47007930358717,568.0418745489293,
T7,464.659102910922,752.9110959341581,769.920473684186,725.1575923868709,476.9609455004853,
Pz,304.3357072996221,127.10135262371234,635.5831408816086,310.41932588243725,194.64216258677797,
T8,850.0903669032733,541.2282233607732,638.0510244129232,566.405947834612,425.01947639261766,
AF4,315.79204272962534,635.7138083028127,244.24029010082347,340.4833932419577,281.92975440971725,
AF3,430.4141774372738,988.7208808678663,437.6735862589499,385.47007930358717,568.0418745489293,
T7,464.659102910922,752.9110959341581,769.920473684186,725.1575923868709,476.9609455004853,
Pz,304.3357072996221,127.10135262371234,635.5831408816086,310.41932588243725,194.64216258677797,
T8,850.0903669032733,541.2282233607732,638.0510244129232,566.405947834612,425.01947639261766,
AF4,315.79204272962534,635.7138083028127,244.24029010082347,340.4833932419577,281.92975440971725,
AF3,430.4141774372738,988.7208808678663,437.6735862589499,385.47007930358717,568.0418745489293,
T7,464.659102910922,752.9110959341581,769.920473684186,725.1575923868709,476.9609455004853,
Pz,304.3357072996221,127.10135262371234,635.5831408816086,310.41932588243725,194.64216258677797,
T8,850.0903669032733,541.2282233607732,638.0510244129232,566.405947834612,425.01947639261766,
AF4,315.79204272962534,635.7138083028127,244.24029010082347,340.4833932419577,281.92975440971725,
AF3,430.4141774372738,988.7208808678663,437.6735862589499,385.47007930358717,568.0418745489293,
T7,464.659102910922,752.9110959341581,769.920473684186,725.1575923868709,476.9609455004853,
Pz,304.3357072996221,127.10135262371234,635.5831408816086,310.41932588243725,194.64216258677797,
T8,850.0903669032733,541.2282233607732,638.0510244129232,566.405947834612,425.01947639261766,
AF4,315.79204272962534,635.7138083028127,244.24029010082347,340.4833932419577,281.92975440971725,
AF3,430.4141774372738,988.7208808678663,437.6735862589499,385.47007930358717,568.0418745489293,
T7,464.659102910922,752.9110959341581,769.920473684186,725.1575923868709,476.9609455004853,
Pz,304.3357072996221,127.10135262371234,635.5831408816086,310.41932588243725,194.64216258677797,
T8,850.0903669032733,541.2282233607732,638.0510244129232,566.405947834612,425.01947639261766,
AF4,315.79204272962534,635.7138083028127,244.24029010082347,340.4833932419577,281.92975440971725,
AF3,430.4141774372738,988.7208808678663,437.6735862589499,385.47007930358717,568.0418745489293,
T7,464.659102910922,752.9110959341581,769.920473684186,725.1575923868709,476.9609455004853,
Pz,304.3357072996221,127.10135262371234,635.5831408816086,310.41932588243725,194.64216258677797,
T8,850.0903669032733,541.2282233607732,638.0510244129232,566.405947834612,425.01947639261766,
AF4,315.79204272962534,635.7138083028127,244.24029010082347,340.4833932419577,281.92975440971725,
AF3,430.4141774372738,988.7208808678663,437.6735862589499,385.47007930358717,568.0418745489293,
T7,464.659102910922,752.9110959341581,769.920473684186,725.1575923868709,476.9609455004853,
Pz,304.3357072996221,127.10135262371234,635.5831408816086,310.41932588243725,194.64216258677797,
T8,850.0903669032733,541.2282233607732,638.0510244129232,566.405947834612,425.01947639261766,
AF4,315.79204272962534,635.7138083028127,244.24029010082347,340.4833932419577,281.92975440971725,
AF3,430.4141774372738,988.7208808678663,437.6735862589499,385.47007930358717,568.0418745489293,
T7,464.659102910922,752.9110959341581,769.920473684186,725.1575923868709,476.9609455004853,
Pz,304.3357072996221,127.10135262371234,635.5831408816086,310.41932588243725,194.64216258677797,
T8,850.0903669032733,541.2282233607732,638.0510244129232,566.405947834612,425.01947639261766,
AF4,315.79204272962534,635.7138083028127,244.24029010082347,340.4833932419577,281.92975440971725,
AF3,430.4141774372738,988.7208808678663,437.6735862589499,385.47007930358717,568.0418745489293,
T7,464.659102910922,752.9110959341581,769.920473684186,725.1575923868709,476.9609455004853,
Pz,304.3357072996221,127.10135262371234,635.5831408816086,310.41932588243725,194.64216258677797,
T8,850.0903669032733,541.2282233607732,638.0510244129232,566.405947834612,425.01947639261766,
AF4,315.79204272962534,635.7138083028127,244.24029010082347,340.4833932419577,281.92975440971725,
AF3,430.4141774372738,988.7208808678663,437.6735862589499,385.47007930358717,568.0418745489293,
T7,464.659102910922,752.9110959341581,769.920473684186,725.1575923868709,476.9609455004853,
Pz,304.3357072996221,127.10135262371234,635.5831408816086,310.41932588243725,194.64216258677797,
T8,850.0903669032733,541.2282233607732,638.0510244129232,566.405947834612,425.01947639261766,
AF4,315.79204272962534,635.7138083028127,244.24029010082347,340.4833932419577,281.92975440971725,
AF3,430.4141774372738,988.7208808678663,437.6735862589499,385.47007930358717,568.0418745489293,
T7,464.659102910922,752.9110959341581,769.920473684186,725.1575923868709,476.9609455004853,
Pz,304.3357072996221,127.10135262371234,635.5831408816086,310.41932588243725,194.64216258677797,
T8,850.0903669032733,541.2282233607732,638.0510244129232,566.405947834612,425.01947639261766,
AF4,315.79204272962534,635.7138083028127,244.24029010082347,340.4833932419577,281.92975440971725,
AF3,430.4141774372738,988.7208808678663,437.6735862589499,385.47007930358717,568.0418745489293,
T7,464.659102910922,752.9110959341581,769.920473684186,725.1575923868709,476.9609455004853,
Pz,304.3357072996221,127.10135262371234,635.5831408816086,310.41932588243725,194.64216258677797,
T8,850.0903669032733,541.2282233607732,638.0510244129232,566.405947834612,425.01947639261766,
AF4,315.79204272962534,635.7138083028127,244.24029010082347,340.4833932419577,281.92975440971725,
AF3,430.4141774372738,988.7208808678663,437.6735862589499,385.47007930358717,568.0418745489293,
T7,464.659102910922,752.9110959341581,769.920473684186,725.1575923868709,476.9609455004853,
Pz,304.3357072996221,127.10135262371234,635.5831408816086,310.41932588243725,194.64216258677797,
T8,850.0903669032733,541.2282233607732,638.0510244129232,566.405947834612,425.01947639261766,
AF4,315.79204272962534,635.7138083028127,244.24029010082347,340.4833932419577,281.92975440971725,
AF3,430.4141774372738,988.7208808678663,437.6735862589499,385.47007930358717,568.0418745489293,
T7,464.659102910922,752.9110959341581,769.920473684186,725.1575923868709,476.9609455004853,
Pz,304.3357072996221,127.10135262371234,635.5831408816086,310.41932588243725,194.64216258677797,
T8,850.0903669032733,541.2282233607732,638.0510244129232,566.405947834612,425.01947639261766,
AF4,315.79204272962534,635.7138083028127,244.24029010082347,340.4833932419577,281.92975440971725,
AF3,430.4141774372738,988.7208808678663,437.6735862589499,385.47007930358717,568.0418745489293,
T7,464.659102910922,752.9110959341581,769.920473684186,725.1575923868709,476.9609455004853,
Pz,304.3357072996221,127.10135262371234,635.5831408816086,310.41932588243725,194.64216258677797,
T8,850.0903669032733,541.2282233607732,638.0510244129232,566.405947834612,425.01947639261766,
AF4,315.79204272962534,635.7138083028127,244.24029010082347,340.4833932419577,281.92975440971725,
AF3,430.4141774372738,988.7208808678663,437.6735862589499,385.47007930358717,568.0418745489293,
T7,464.659102910922,752.9110959341581,769.920473684186,725.1575923868709,476.9609455004853,
Pz,304.3357072996221,127.10135262371234,635.5831408816086,310.41932588243725,194.64216258677797,
T8,850.0903669032733,541.2282233607732,638.0510244129232,566.405947834612,425.01947639261766,
AF4,315.79204272962534,635.7138083028127,244.24029010082347,340.4833932419577,281.92975440971725,
AF3,430.4141774372738,988.7208808678663,437.6735862589499,385.47007930358717,568.0418745489293,
T7,464.659102910922,752.9110959341581,769.920473684186,725.1575923868709,476.9609455004853,
Pz,304.3357072996221,127.10135262371234,635.5831408816086,310.41932588243725,194.64216258677797,
T8,850.0903669032733,541.2282233607732,638.0510244129232,566.405947834612,425.01947639261766,
AF4,315.79204272962534,635.7138083028127,244.24029010082347,340.4833932419577,281.92975440971725,
AF3,430.4141774372738,988.7208808678663,437.6735862589499,385.47007930358717,568.0418745489293,
T7,464.659102910922,752.9110959341581,769.920473684186,725.1575923868709,476.9609455004853,
Pz,304.3357072996221,127.10135262371234,635.5831408816086,310.41932588243725,194.64216258677797,
T8,850.0903669032733,541.2282233607732,638.0510244129232,566.405947834612,425.01947639261766,
AF4,315.79204272962534,635.7138083028127,244.24029010082347,340.4833932419577,281.92975440971725,
AF3,430.4141774372738,988.7208808678663,437.6735862589499,385.47007930358717,568.0418745489293,
T7,464.659102910922,752.9110959341581,769.920473684186,725.1575923868709,476.9609455004853,
Pz,304.3357072996221,127.10135262371234,635.5831408816086,310.41932588243725,194.64216258677797,
T8,850.0903669032733,541.2282233607732,638.0510244129232,566.405947834612,425.01947639261766,
AF4,315.79204272962534,635.7138083028127,244.24029010082347,340.4833932419577,281.92975440971725,
AF3,430.4141774372738,988.7208808678663,437.6735862589499,385.47007930358717,568.0418745489293,
T7,464.659102910922,752.9110959341581,769.920473684186,725.1575923868709,476.9609455004853,
Pz,304.3357072996221,127.10135262371234,635.5831408816086,310.41932588243725,194.64216258677797,
T8,850.0903669032733,541.2282233607732,638.0510244129232,566.405947834612,425.01947639261766,
AF4,315.79204272962534,635.7138083028127,244.24029010082347,340.4833932419577,281.92975440971725,
AF3,430.4141774372738,988.7208808678663,437.6735862589499,385.47007930358717,568.0418745489293,
T7,464.659102910922,752.9110959341581,769.920473684186,725.1575923868709,476.9609455004853,
Pz,304.3357072996221,127.10135262371234,635.5831408816086,310.41932588243725,194.64216258677797,
T8,850.0903669032733,541.2282233607732,638.0510244129232,566.405947834612,425.01947639261766,
AF4,315.79204272962534,635.7138083028127,244.24029010082347,340.4833932419577,281.92975440971725,
AF3,430.4141774372738,988.7208808678663,437.6735862589499,385.47007930358717,568.0418745489293,
T7,464.659102910922,752.9110959341581,769.920473684186,725.1575923868709,476.9609455004853,
Pz,304.3357072996221,127.10135262371234,635.5831408816086,310.41932588243725,194.64216258677797,
T8,850.0903669032733,541.2282233607732,638.0510244129232,566.405947834612,425.01947639261766,
AF4,315.79204272962534,635.7138083028127,244.24029010082347,340.4833932419577,281.92975440971725,
AF3,430.4141774372738,988.7208808678663,437.6735862589499,385.47007930358717,568.0418745489293,
T7,464.659102910922,752.9110959341581,769.920473684186,725.1575923868709,476.9609455004853,
Pz,304.3357072996221,127.10135262371234,635.5831408816086,310.41932588243725,194.64216258677797,
T8,850.0903669032733,541.2282233607732,638.0510244129232,566.405947834612,425.01947639261766,
AF4,315.79204272962534,635.7138083028127,244.24029010082347,340.4833932419577,281.92975440971725,
AF3,430.4141774372738,988.7208808678663,437.6735862589499,385.47007930358717,568.0418745489293,
T7,464.659102910922,752.9110959341581,769.920473684186,725.1575923868709,476.9609455004853,
Pz,304.3357072996221,127.10135262371234,635.5831408816086,310.41932588243725,194.64216258677797,
T8,850.0903669032733,541.2282233607732,638.0510244129232,566.405947834612,425.01947639261766,
AF4,315.79204272962534,635.7138083028127,244.24029010082347,340.4833932419577,281.92975440971725,
AF3,430.4141774372738,988.7208808678663,437.6735862589499,385.47007930358717,568.0418745489293,
T7,464.659102910922,752.9110959341581,769.920473684186,725.1575923868709,476.9609455004853,
Pz,304.3357072996221,127.10135262371234,635.5831408816086,310.41932588243725,194.64216258677797,
T8,850.0903669032733,541.2282233607732,638.0510244129232,566.405947834612,425.01947639261766,
AF4,315.79204272962534,635.7138083028127,244.24029010082347,340.4833932419577,281.92975440971725,
AF3,430.4141774372738,988.7208808678663,437.6735862589499,385.47007930358717,568.0418745489293,
T7,464.659102910922,752.9110959341581,769.920473684186,725.1575923868709,476.9609455004853,
Pz,304.3357072996221,127.10135262371234,635.5831408816086,310.41932588243725,194.64216258677797,
T8,850.0903669032733,541.2282233607732,638.0510244129232,566.405947834612,425.01947639261766,
AF4,315.79204272962534,635.7138083028127,244.24029010082347,340.4833932419577,281.92975440971725,
AF3,430.4141774372738,988.7208808678663,437.6735862589499,385.47007930358717,568.0418745489293,
T7,464.659102910922,752.9110959341581,769.920473684186,725.1575923868709,476.9609455004853,
Pz,304.3357072996221,127.10135262371234,635.5831408816086,310.41932588243725,194.64216258677797,
T8,850.0903669032733,541.2282233607732,638.0510244129232,566.405947834612,425.01947639261766,
AF4,315.79204272962534,635.7138083028127,244.24029010082347,340.4833932419577,281.92975440971725,
AF3,430.4141774372738,988.7208808678663,437.6735862589499,385.47007930358717,568.0418745489293,
T7,464.659102910922,752.9110959341581,769.920473684186,725.1575923868709,476.9609455004853,
Pz,304.3357072996221,127.10135262371234,635.5831408816086,310.41932588243725,194.64216258677797,
T8,850.0903669032733,541.2282233607732,638.0510244129232,566.405947834612,425.01947639261766,
AF4,315.79204272962534,635.7138083028127,244.24029010082347,340.4833932419577,281.92975440971725,
AF3,430.4141774372738,988.7208808678663,437.6735862589499,385.47007930358717,568.0418745489293,
T7,464.659102910922,752.9110959341581,769.920473684186,725.1575923868709,476.9609455004853,
Pz,304.3357072996221,127.10135262371234,635.5831408816086,310.41932588243725,194.64216258677797,
T8,850.0903669032733,541.2282233607732,638.0510244129232,566.405947834612,425.01947639261766,
AF4,315.79204272962534,635.7138083028127,244.24029010082347,340.4833932419577,281.92975440971725,
AF3,430.4141774372738,988.7208808678663,437.6735862589499,385.47007930358717,568.0418745489293,
T7,464.659102910922,752.9110959341581,769.920473684186,725.1575923868709,476.9609455004853,
Pz,304.3357072996221,127.10135262371234,635.5831408816086,310.41932588243725,194.64216258677797,
T8,850.0903669032733,541.2282233607732,638.0510244129232,566.405947834612,425.01947639261766,
AF4,315.79204272962534,635.7138083028127,244.24029010082347,340.4833932419577,281.92975440971725,
AF3,430.4141774372738,988.7208808678663,437.6735862589499,385.47007930358717,568.0418745489293,
T7,464.659102910922,752.9110959341581,769.920473684186,725.1575923868709,476.9609455004853,
Pz,304.3357072996221,127.10135262371234,635.5831408816086,310.41932588243725,194.64216258677797,
T8,850.0903669032733,541.2282233607732,638.0510244129232,566.405947834612,425.01947639261766,
AF4,315.79204272962534,635.7138083028127,244.24029010082347,340.4833932419577,281.92975440971725,
AF3,430.4141774372738,988.7208808678663,437.6735862589499,385.47007930358717,568.0418745489293,
T7,464.659102910922,752.9110959341581,769.920473684186,725.1575923868709,476.9609455004853,
Pz,304.3357072996221,127.10135262371234,635.5831408816086,310.41932588243725,194.64216258677797,
T8,850.0903669032733,541.2282233607732,638.0510244129232,566.405947834612,425.01947639261766,
AF4,315.79204272962534,635.7138083028127,244.24029010082347,340.4833932419577,281.92975440971725,
AF3,430.4141774372738,988.7208808678663,437.6735862589499,385.47007930358717,568.0418745489293,
T7,464.659102910922,752.9110959341581,769.920473684186,725.1575923868709,476.9609455004853,
Pz,304.3357072996221,127.10135262371234,635.5831408816086,310.41932588243725,194.64216258677797,
T8,850.0903669032733,541.2282233607732,638.0510244129232,566.405947834612,425.01947639261766,
AF4,315.79204272962534,635.7138083028127,244.24029010082347,340.4833932419577,281.92975440971725,
AF3,430.4141774372738,988.7208808678663,437.6735862589499,385.47007930358717,568.0418745489293,
T7,464.659102910922,752.9110959341581,769.920473684186,725.1575923868709,476.9609455004853,
Pz,304.3357072996221,127.10135262371234,635.5831408816086,310.41932588243725,194.64216258677797,
T8,850.0903669032733,541.2282233607732,638.0510244129232,566.405947834612,425.01947639261766,
AF4,315.79204272962534,635.7138083028127,244.24029010082347,340.4833932419577,281.92975440971725,
AF3,430.4141774372738,988.7208808678663,437.6735862589499,385.47007930358717,568.0418745489293,
T7,464.659102910922,752.9110959341581,769.920473684186,725.1575923868709,476.9609455004853,
Pz,304.3357072996221,127.10135262371234,635.5831408816086,310.41932588243725,194.64216258677797,
T8,850.0903669032733,541.2282233607732,638.0510244129232,566.405947834612,425.01947639261766,
AF4,315.79204272962534,635.7138083028127,244.24029010082347,340.4833932419577,281.92975440971725,
AF3,430.4141774372738,988.7208808678663,437.6735862589499,385.47007930358717,568.0418745489293,
T7,464.659102910922,752.9110959341581,769.920473684186,725.1575923868709,476.9609455004853,
Pz,304.3357072996221,127.10135262371234,635.5831408816086,310.41932588243725,194.64216258677797,
T8,850.0903669032733,541.2282233607732,638.0510244129232,566.405947834612,425.01947639261766,
AF4,315.79204272962534,635.7138083028127,244.24029010082347,340.4833932419577,281.92975440971725,
AF3,430.4141774372738,988.7208808678663,437.6735862589499,385.47007930358717,568.0418745489293,
T7,464.659102910922,752.9110959341581,769.920473684186,725.1575923868709,476.9609455004853,
Pz,304.3357072996221,127.10135262371234,635.5831408816086,310.41932588243725,194.64216258677797,
T8,850.0903669032733,541.2282233607732,638.0510244129232,566.405947834612,425.01947639261766,
AF4,315.79204272962534,635.7138083028127,244.24029010082347,340.4833932419577,281.92975440971725,
AF3,430.4141774372738,988.7208808678663,437.6735862589499,385.47007930358717,568.0418745489293,
T7,464.659102910922,752.9110959341581,769.920473684186,725.1575923868709,476.9609455004853,
Pz,304.3357072996221,127.10135262371234,635.5831408816086,310.41932588243725,194.64216258677797,
T8,850.0903669032733,541.2282233607732,638.0510244129232,566.405947834612,425.01947639261766,
AF4,315.79204272962534,635.7138083028127,244.24029010082347,340.4833932419577,281.92975440971725,
AF3,430.4141774372738,988.7208808678663,437.6735862589499,385.47007930358717,568.0418745489293,
T7,464.659102910922,752.9110959341581,769.920473684186,725.1575923868709,476.9609455004853,
Pz,304.3357072996221,127.10135262371234,635.5831408816086,310.41932588243725,194.64216258677797,
T8,850.0903669032733,541.2282233607732,638.0510244129232,566.405947834612,425.01947639261766,
AF4,315.79204272962534,635.7138083028127,244.24029010082347,340.4833932419577,281.92975440971725,
AF3,430.4141774372738,988.7208808678663,437.6735862589499,385.47007930358717,568.0418745489293,
T7,464.659102910922,752.9110959341581,769.920473684186,725.1575923868709,476.9609455004853,
Pz,304.3357072996221,127.10135262371234,635.5831408816086,310.41932588243725,194.64216258677797,
T8,850.0903669032733,541.2282233607732,638.0510244129232,566.405947834612,425.01947639261766,
AF4,315.79204272962534,635.7138083028127,244.24029010082347,340.4833932419577,281.92975440971725,
AF3,430.4141774372738,988.7208808678663,437.6735862589499,385.47007930358717,568.0418745489293,
T7,464.659102910922,752.9110959341581,769.920473684186,725.1575923868709,476.9609455004853,
Pz,304.3357072996221,127.10135262371234,635.5831408816086,310.41932588243725,194.64216258677797,
T8,850.0903669032733,541.2282233607732,638.0510244129232,566.405947834612,425.01947639261766,
AF4,315.79204272962534,635.7138083028127,244.24029010082347,340.4833932419577,281.92975440971725,
AF3,430.4141774372738,988.7208808678663,437.6735862589499,385.47007930358717,568.0418745489293,
T7,464.659102910922,752.9110959341581,769.920473684186,725.1575923868709,476.9609455004853,
Pz,304.3357072996221,127.10135262371234,635.5831408816086,310.41932588243725,194.64216258677797,
T8,850.0903669032733,541.2282233607732,638.0510244129232,566.405947834612,425.01947639261766,
AF4,315.79204272962534,635.7138083028127,244.24029010082347,340.4833932419577,281.92975440971725,
AF3,430.4141774372738,988.7208808678663,437.6735862589499,385.47007930358717,568.0418745489293,
T7,464.659102910922,752.9110959341581,769.920473684186,725.1575923868709,476.9609455004853,
Pz,304.3357072996221,127.10135262371234,635.5831408816086,310.41932588243725,194.64216258677797,
T8,850.0903669032733,541.2282233607732,638.0510244129232,566.405947834612,425.01947639261766,
AF4,315.79204272962534,635.7138083028127,244.24029010082347,340.4833932419577,281.92975440971725,
AF3,430.4141774372738,988.7208808678663,437.6735862589499,385.47007930358717,568.0418745489293,
T7,464.659102910922,752.9110959341581,769.920473684186,725.1575923868709,476.9609455004853,
Pz,304.3357072996221,127.10135262371234,635.5831408816086,310.41932588243725,194.64216258677797,
T8,850.0903669032733,541.2282233607732,638.0510244129232,566.405947834612,425.01947639261766,
AF4,315.79204272962534,635.7138083028127,244.24029010082347,340.4833932419577,281.92975440971725,
AF3,430.4141774372738,988.7208808678663,437.6735862589499,385.47007930358717,568.0418745489293,
T7,464.659102910922,752.9110959341581,769.920473684186,725.1575923868709,476.9609455004853,
Pz,304.3357072996221,127.10135262371234,635.5831408816086,310.41932588243725,194.64216258677797,
T8,850.0903669032733,541.2282233607732,638.0510244129232,566.405947834612,425.01947639261766,
AF4,315.79204272962534,635.7138083028127,244.24029010082347,340.4833932419577,281.92975440971725,
AF3,430.4141774372738,988.7208808678663,437.6735862589499,385.47007930358717,568.0418745489293,
T7,464.659102910922,752.9110959341581,769.920473684186,725.1575923868709,476.9609455004853,
Pz,304.3357072996221,127.10135262371234,635.5831408816086,310.41932588243725,194.64216258677797,
T8,850.0903669032733,541.2282233607732,638.0510244129232,566.405947834612,425.01947639261766,
AF4,315.79204272962534,635.7138083028127,244.24029010082347,340.4833932419577,281.92975440971725,
AF3,430.4141774372738,988.7208808678663,437.6735862589499,385.47007930358717,568.0418745489293,
T7,464.659102910922,752.9110959341581,769.920473684186,725.1575923868709,476.9609455004853,
Pz,304.3357072996221,127.10135262371234,635.5831408816086,310.41932588243725,194.64216258677797,
T8,850.0903669032733,541.2282233607732,638.0510244129232,566.405947834612,425.01947639261766,
AF4,315.79204272962534,635.7138083028127,244.24029010082347,340.4833932419577,281.92975440971725,
AF3,430.4141774372738,988.7208808678663,437.6735862589499,385.47007930358717,568.0418745489293,
T7,464.659102910922,752.9110959341581,769.920473684186,725.1575923868709,476.9609455004853,
Pz,304.3357072996221,127.10135262371234,635.5831408816086,310.41932588243725,194.64216258677797,
T8,850.0903669032733,541.2282233607732,638.0510244129232,566.405947834612,425.01947639261766,
AF4,315.79204272962534,635.7138083028127,244.24029010082347,340.4833932419577,281.92975440971725,
AF3,430.4141774372738,988.7208808678663,437.6735862589499,385.47007930358717,568.0418745489293,
T7,464.659102910922,752.9110959341581,769.920473684186,725.1575923868709,476.9609455004853,
Pz,304.3357072996221,127.10135262371234,635.5831408816086,310.41932588243725,194.64216258677797,
T8,850.0903669032733,541.2282233607732,638.0510244129232,566.405947834612,425.01947639261766,
AF4,315.79204272962534,635.7138083028127,244.24029010082347,340.4833932419577,281.92975440971725,
AF3,430.4141774372738,988.7208808678663,437.6735862589499,385.47007930358717,568.0418745489293,
T7,464.659102910922,752.9110959341581,769.920473684186,725.1575923868709,476.9609455004853,
Pz,304.3357072996221,127.10135262371234,635.5831408816086,310.41932588243725,194.64216258677797,
T8,850.0903669032733,541.2282233607732,638.0510244129232,566.405947834612,425.01947639261766,
AF4,315.79204272962534,635.7138083028127,244.24029010082347,340.4833932419577,281.92975440971725,
AF3,430.4141774372738,988.7208808678663,437.6735862589499,385.47007930358717,568.0418745489293,
T7,464.659102910922,752.9110959341581,769.920473684186,725.1575923868709,476.9609455004853,
Pz,304.3357072996221,127.10135262371234,635.5831408816086,310.41932588243725,194.64216258677797,
T8,850.0903669032733,541.2282233607732,638.0510244129232,566.405947834612,425.01947639261766,
AF4,315.79204272962534,635.7138083028127,244.24029010082347,340.4833932419577,281.92975440971725,
AF3,430.4141774372738,988.7208808678663,437.6735862589499,385.47007930358717,568.0418745489293,
T7,464.659102910922,752.9110959341581,769.920473684186,725.1575923868709,476.9609455004853,
Pz,304.3357072996221,127.10135262371234,635.5831408816086,310.41932588243725,194.64216258677797,
T8,850.0903669032733,541.2282233607732,638.0510244129232,566.405947834612,425.01947639261766,
AF4,315.79204272962534,635.7138083028127,244.24029010082347,340.4833932419577,281.92975440971725,
AF3,430.4141774372738,988.7208808678663,437.6735862589499,385.47007930358717,568.0418745489293,
T7,464.659102910922,752.9110959341581,769.920473684186,725.1575923868709,476.9609455004853,
Pz,304.3357072996221,127.10135262371234,635.5831408816086,310.41932588243725,194.64216258677797,
T8,850.0903669032733,541.2282233607732,638.0510244129232,566.405947834612,425.01947639261766,
AF4,315.79204272962534,635.7138083028127,244.24029010082347,340.4833932419577,281.92975440971725,
AF3,430.4141774372738,988.7208808678663,437.6735862589499,385.47007930358717,568.0418745489293,
T7,464.659102910922,752.9110959341581,769.920473684186,725.1575923868709,476.9609455004853,
Pz,304.3357072996221,127.10135262371234,635.5831408816086,310.41932588243725,194.64216258677797,
T8,850.0903669032733,541.2282233607732,638.0510244129232,566.405947834612,425.01947639261766,
AF4,315.79204272962534,635.7138083028127,244.24029010082347,340.4833932419577,281.92975440971725,
AF3,430.4141774372738,988.7208808678663,437.6735862589499,385.47007930358717,568.0418745489293,
T7,464.659102910922,752.9110959341581,769.920473684186,725.1575923868709,476.9609455004853,
Pz,304.3357072996221,127.10135262371234,635.5831408816086,310.41932588243725,194.64216258677797,
T8,850.0903669032733,541.2282233607732,638.0510244129232,566.405947834612,425.01947639261766,
AF4,315.79204272962534,635.7138083028127,244.24029010082347,340.4833932419577,281.92975440971725,
AF3,430.4141774372738,988.7208808678663,437.6735862589499,385.47007930358717,568.0418745489293,
T7,464.659102910922,752.9110959341581,769.920473684186,725.1575923868709,476.9609455004853,
Pz,304.3357072996221,127.10135262371234,635.5831408816086,310.41932588243725,194.64216258677797,
T8,850.0903669032733,541.2282233607732,638.0510244129232,566.405947834612,425.01947639261766,
AF4,315.79204272962534,635.7138083028127,244.24029010082347,340.4833932419577,281.92975440971725,
AF3,430.4141774372738,988.7208808678663,437.6735862589499,385.47007930358717,568.0418745489293,
T7,464.659102910922,752.9110959341581,769.920473684186,725.1575923868709,476.9609455004853,
Pz,304.3357072996221,127.10135262371234,635.5831408816086,310.41932588243725,194.64216258677797,
T8,850.0903669032733,541.2282233607732,638.0510244129232,566.405947834612,425.01947639261766,
AF4,315.79204272962534,635.7138083028127,244.24029010082347,340.4833932419577,281.92975440971725,
AF3,430.4141774372738,988.7208808678663,437.6735862589499,385.47007930358717,568.0418745489293,
T7,464.659102910922,752.9110959341581,769.920473684186,725.1575923868709,476.9609455004853,
Pz,304.3357072996221,127.10135262371234,635.5831408816086,310.41932588243725,194.64216258677797,
T8,850.0903669032733,541.2282233607732,638.0510244129232,566.405947834612,425.01947639261766,
AF4,315.79204272962534,635.7138083028127,244.24029010082347,340.4833932419577,281.92975440971725,
AF3,430.4141774372738,988.7208808678663,437.6735862589499,385.47007930358717,568.0418745489293,
T7,464.659102910922,752.9110959341581,769.920473684186,725.1575923868709,476.9609455004853,
Pz,304.3357072996221,127.10135262371234,635.5831408816086,310.41932588243725,194.64216258677797,
T8,850.0903669032733,541.2282233607732,638.0510244129232,566.405947834612,425.01947639261766,
AF4,315.79204272962534,635.7138083028127,244.24029010082347,340.4833932419577,281.92975440971725,
AF3,430.4141774372738,988.7208808678663,437.6735862589499,385.47007930358717,568.0418745489293,
T7,464.659102910922,752.9110959341581,769.920473684186,725.1575923868709,476.9609455004853,
Pz,304.3357072996221,127.10135262371234,635.5831408816086,310.41932588243725,194.64216258677797,
T8,850.0903669032733,541.2282233607732,638.0510244129232,566.405947834612,425.01947639261766,
AF4,315.79204272962534,635.7138083028127,244.24029010082347,340.4833932419577,281.92975440971725,
AF3,430.4141774372738,988.7208808678663,437.6735862589499,385.47007930358717,568.0418745489293,
T7,464.659102910922,752.9110959341581,769.920473684186,725.1575923868709,476.9609455004853,
Pz,304.3357072996221,127.10135262371234,635.5831408816086,310.41932588243725,194.64216258677797,
T8,850.0903669032733,541.2282233607732,638.0510244129232,566.405947834612,425.01947639261766,
AF4,315.79204272962534,635.7138083028127,244.24029010082347,340.4833932419577,281.92975440971725,
AF3,430.4141774372738,988.7208808678663,437.6735862589499,385.47007930358717,568.0418745489293,
T7,464.659102910922,752.9110959341581,769.920473684186,725.1575923868709,476.9609455004853,
Pz,304.3357072996221,127.10135262371234,635.5831408816086,310.41932588243725,194.64216258677797,
T8,850.0903669032733,541.2282233607732,638.0510244129232,566.405947834612,425.01947639261766,
AF4,315.79204272962534,635.7138083028127,244.24029010082347,340.4833932419577,281.92975440971725,
AF3,430.4141774372738,988.7208808678663,437.6735862589499,385.47007930358717,568.0418745489293,
T7,464.659102910922,752.9110959341581,769.920473684186,725.1575923868709,476.9609455004853,
Pz,304.3357072996221,127.10135262371234,635.5831408816086,310.41932588243725,194.64216258677797,
T8,850.0903669032733,541.2282233607732,638.0510244129232,566.405947834612,425.01947639261766,
AF4,315.79204272962534,635.7138083028127,244.24029010082347,340.4833932419577,281.92975440971725,
AF3,430.4141774372738,988.7208808678663,437.6735862589499,385.47007930358717,568.0418745489293,
T7,464.659102910922,752.9110959341581,769.920473684186,725.1575923868709,476.9609455004853,
Pz,304.3357072996221,127.10135262371234,635.5831408816086,310.41932588243725,194.64216258677797,
T8,850.0903669032733,541.2282233607732,638.0510244129232,566.405947834612,425.01947639261766,
AF4,315.79204272962534,635.7138083028127,244.24029010082347,340.4833932419577,281.92975440971725,
AF3,430.4141774372738,988.7208808678663,437.6735862589499,385.47007930358717,568.0418745489293,
T7,464.659102910922,752.9110959341581,769.920473684186,725.1575923868709,476.9609455004853,
Pz,304.3357072996221,127.10135262371234,635.5831408816086,310.41932588243725,194.64216258677797,
T8,850.0903669032733,541.2282233607732,638.0510244129232,566.405947834612,425.01947639261766,
AF4,315.79204272962534,635.7138083028127,244.24029010082347,340.4833932419577,281.92975440971725,
AF3,430.4141774372738,988.7208808678663,437.6735862589499,385.47007930358717,568.0418745489293,
T7,464.659102910922,752.9110959341581,769.920473684186,725.1575923868709,476.9609455004853,
Pz,304.3357072996221,127.10135262371234,635.5831408816086,310.41932588243725,194.64216258677797,
T8,850.0903669032733,541.2282233607732,638.0510244129232,566.405947834612,425.01947639261766,
AF4,315.79204272962534,635.7138083028127,244.24029010082347,340.4833932419577,281.92975440971725,
AF3,430.4141774372738,988.7208808678663,437.6735862589499,385.47007930358717,568.0418745489293,
T7,464.659102910922,752.9110959341581,769.920473684186,725.1575923868709,476.9609455004853,
Pz,304.3357072996221,127.10135262371234,635.5831408816086,310.41932588243725,194.64216258677797,
T8,850.0903669032733,541.2282233607732,638.0510244129232,566.405947834612,425.01947639261766,
AF4,315.79204272962534,635.7138083028127,244.24029010082347,340.4833932419577,281.92975440971725,
AF3,430.4141774372738,988.7208808678663,437.6735862589499,385.47007930358717,568.0418745489293,
T7,464.659102910922,752.9110959341581,769.920473684186,725.1575923868709,476.9609455004853,
Pz,304.3357072996221,127.10135262371234,635.5831408816086,310.41932588243725,194.64216258677797,
T8,850.0903669032733,541.2282233607732,638.0510244129232,566.405947834612,425.01947639261766,
AF4,315.79204272962534,635.7138083028127,244.24029010082347,340.4833932419577,281.92975440971725,
AF3,430.4141774372738,988.7208808678663,437.6735862589499,385.47007930358717,568.0418745489293,
T7,464.659102910922,752.9110959341581,769.920473684186,725.1575923868709,476.9609455004853,
Pz,304.3357072996221,127.10135262371234,635.5831408816086,310.41932588243725,194.64216258677797,
T8,850.0903669032733,541.2282233607732,638.0510244129232,566.405947834612,425.01947639261766,
AF4,315.79204272962534,635.7138083028127,244.24029010082347,340.4833932419577,281.92975440971725,
AF3,430.4141774372738,988.7208808678663,437.6735862589499,385.47007930358717,568.0418745489293,
T7,464.659102910922,752.9110959341581,769.920473684186,725.1575923868709,476.9609455004853,
Pz,304.3357072996221,127.10135262371234,635.5831408816086,310.41932588243725,194.64216258677797,
T8,850.0903669032733,541.2282233607732,638.0510244129232,566.405947834612,425.01947639261766,
AF4,315.79204272962534,635.7138083028127,244.24029010082347,340.4833932419577,281.92975440971725,
AF3,430.4141774372738,988.7208808678663,437.6735862589499,385.47007930358717,568.0418745489293,
T7,464.659102910922,752.9110959341581,769.920473684186,725.1575923868709,476.9609455004853,
Pz,304.3357072996221,127.10135262371234,635.5831408816086,310.41932588243725,194.64216258677797,
T8,850.0903669032733,541.2282233607732,638.0510244129232,566.405947834612,425.01947639261766,
AF4,315.79204272962534,635.7138083028127,244.24029010082347,340.4833932419577,281.92975440971725,
AF3,430.4141774372738,988.7208808678663,437.6735862589499,385.47007930358717,568.0418745489293,
T7,464.659102910922,752.9110959341581,769.920473684186,725.1575923868709,476.9609455004853,
Pz,304.3357072996221,127.10135262371234,635.5831408816086,310.41932588243725,194.64216258677797,
T8,850.0903669032733,541.2282233607732,638.0510244129232,566.405947834612,425.01947639261766,
AF4,315.79204272962534,635.7138083028127,244.24029010082347,340.4833932419577,281.92975440971725,
AF3,430.4141774372738,988.7208808678663,437.6735862589499,385.47007930358717,568.0418745489293,
T7,464.659102910922,752.9110959341581,769.920473684186,725.1575923868709,476.9609455004853,
Pz,304.3357072996221,127.10135262371234,635.5831408816086,310.41932588243725,194.64216258677797,
T8,850.0903669032733,541.2282233607732,638.0510244129232,566.405947834612,425.01947639261766,
AF4,315.79204272962534,635.7138083028127,244.24029010082347,340.4833932419577,281.92975440971725,
AF3,430.4141774372738,988.7208808678663,437.6735862589499,385.47007930358717,568.0418745489293,
T7,464.659102910922,752.9110959341581,769.920473684186,725.1575923868709,476.9609455004853,
Pz,304.3357072996221,127.10135262371234,635.5831408816086,310.41932588243725,194.64216258677797,
T8,850.0903669032733,541.2282233607732,638.0510244129232,566.405947834612,425.01947639261766,
AF4,315.79204272962534,635.7138083028127,244.24029010082347,340.4833932419577,281.92975440971725,
AF3,430.4141774372738,988.7208808678663,437.6735862589499,385.47007930358717,568.0418745489293,
T7,464.659102910922,752.9110959341581,769.920473684186,725.1575923868709,476.9609455004853,
Pz,304.3357072996221,127.10135262371234,635.5831408816086,310.41932588243725,194.64216258677797,
T8,850.0903669032733,541.2282233607732,638.0510244129232,566.405947834612,425.01947639261766,
AF4,315.79204272962534,635.7138083028127,244.24029010082347,340.4833932419577,281.92975440971725,
AF3,430.4141774372738,988.7208808678663,437.6735862589499,385.47007930358717,568.0418745489293,
T7,464.659102910922,752.9110959341581,769.920473684186,725.1575923868709,476.9609455004853,
Pz,304.3357072996221,127.10135262371234,635.5831408816086,310.41932588243725,194.64216258677797,
T8,850.0903669032733,541.2282233607732,638.0510244129232,566.405947834612,425.01947639261766,
AF4,315.79204272962534,635.7138083028127,244.24029010082347,340.4833932419577,281.92975440971725,
AF3,430.4141774372738,988.7208808678663,437.6735862589499,385.47007930358717,568.0418745489293,
T7,464.659102910922,752.9110959341581,769.920473684186,725.1575923868709,476.9609455004853,
Pz,304.3357072996221,127.10135262371234,635.5831408816086,310.41932588243725,194.64216258677797,
T8,850.0903669032733,541.2282233607732,638.0510244129232,566.405947834612,425.01947639261766,
AF4,315.79204272962534,635.7138083028127,244.24029010082347,340.4833932419577,281.92975440971725,
AF3,430.4141774372738,988.7208808678663,437.6735862589499,385.47007930358717,568.0418745489293,
T7,464.659102910922,752.9110959341581,769.920473684186,725.1575923868709,476.9609455004853,
Pz,304.3357072996221,127.10135262371234,635.5831408816086,310.41932588243725,194.64216258677797,
T8,850.0903669032733,541.2282233607732,638.0510244129232,566.405947834612,425.01947639261766,
AF4,230.8136738547348,327.69763516916373,416.8961820361438,265.4590786392799,242.12408032420893,
AF3,341.6515528669877,659.6269807863184,454.66780460253557,571.247453956577,476.1523203036397,
T7,645.8284194361261,662.7240734471175,673.0812411506998,689.3008264162444,499.34558206751126,
Pz,492.2026503528156,135.58363015262978,259.0410054469351,377.6220616654126,223.0937316038102,
T8,1074.2534881427223,462.1829434316169,281.4819676187767,414.5500061563329,470.2361011892963,
AF4,230.8136738547348,327.69763516916373,416.8961820361438,265.4590786392799,242.12408032420893,
AF3,341.6515528669877,659.6269807863184,454.66780460253557,571.247453956577,476.1523203036397,
T7,645.8284194361261,662.7240734471175,673.0812411506998,689.3008264162444,499.34558206751126,
Pz,492.2026503528156,135.58363015262978,259.0410054469351,377.6220616654126,223.0937316038102,
T8,1074.2534881427223,462.1829434316169,281.4819676187767,414.5500061563329,470.2361011892963,
AF4,230.8136738547348,327.69763516916373,416.8961820361438,265.4590786392799,242.12408032420893,
AF3,341.6515528669877,659.6269807863184,454.66780460253557,571.247453956577,476.1523203036397,
T7,645.8284194361261,662.7240734471175,673.0812411506998,689.3008264162444,499.34558206751126,
Pz,492.2026503528156,135.58363015262978,259.0410054469351,377.6220616654126,223.0937316038102,
T8,1074.2534881427223,462.1829434316169,281.4819676187767,414.5500061563329,470.2361011892963,
AF4,230.8136738547348,327.69763516916373,416.8961820361438,265.4590786392799,242.12408032420893,
AF3,341.6515528669877,659.6269807863184,454.66780460253557,571.247453956577,476.1523203036397,
T7,645.8284194361261,662.7240734471175,673.0812411506998,689.3008264162444,499.34558206751126,
Pz,492.2026503528156,135.58363015262978,259.0410054469351,377.6220616654126,223.0937316038102,
T8,1074.2534881427223,462.1829434316169,281.4819676187767,414.5500061563329,470.2361011892963,
AF4,230.8136738547348,327.69763516916373,416.8961820361438,265.4590786392799,242.12408032420893,
AF3,341.6515528669877,659.6269807863184,454.66780460253557,571.247453956577,476.1523203036397,
T7,645.8284194361261,662.7240734471175,673.0812411506998,689.3008264162444,499.34558206751126,
Pz,492.2026503528156,135.58363015262978,259.0410054469351,377.6220616654126,223.0937316038102,
T8,1074.2534881427223,462.1829434316169,281.4819676187767,414.5500061563329,470.2361011892963,
AF4,230.8136738547348,327.69763516916373,416.8961820361438,265.4590786392799,242.12408032420893,
AF3,341.6515528669877,659.6269807863184,454.66780460253557,571.247453956577,476.1523203036397,
T7,645.8284194361261,662.7240734471175,673.0812411506998,689.3008264162444,499.34558206751126,
Pz,492.2026503528156,135.58363015262978,259.0410054469351,377.6220616654126,223.0937316038102,
T8,1074.2534881427223,462.1829434316169,281.4819676187767,414.5500061563329,470.2361011892963,
AF4,230.8136738547348,327.69763516916373,416.8961820361438,265.4590786392799,242.12408032420893,
AF3,341.6515528669877,659.6269807863184,454.66780460253557,571.247453956577,476.1523203036397,
T7,645.8284194361261,662.7240734471175,673.0812411506998,689.3008264162444,499.34558206751126,
Pz,492.2026503528156,135.58363015262978,259.0410054469351,377.6220616654126,223.0937316038102,
T8,1074.2534881427223,462.1829434316169,281.4819676187767,414.5500061563329,470.2361011892963,
AF4,230.8136738547348,327.69763516916373,416.8961820361438,265.4590786392799,242.12408032420893,
AF3,341.6515528669877,659.6269807863184,454.66780460253557,571.247453956577,476.1523203036397,
T7,645.8284194361261,662.7240734471175,673.0812411506998,689.3008264162444,499.34558206751126,
Pz,492.2026503528156,135.58363015262978,259.0410054469351,377.6220616654126,223.0937316038102,
T8,1074.2534881427223,462.1829434316169,281.4819676187767,414.5500061563329,470.2361011892963,
AF4,230.8136738547348,327.69763516916373,416.8961820361438,265.4590786392799,242.12408032420893,
AF3,341.6515528669877,659.6269807863184,454.66780460253557,571.247453956577,476.1523203036397,
T7,645.8284194361261,662.7240734471175,673.0812411506998,689.3008264162444,499.34558206751126,
Pz,492.2026503528156,135.58363015262978,259.0410054469351,377.6220616654126,223.0937316038102,
T8,1074.2534881427223,462.1829434316169,281.4819676187767,414.5500061563329,470.2361011892963,
AF4,230.8136738547348,327.69763516916373,416.8961820361438,265.4590786392799,242.12408032420893,
AF3,341.6515528669877,659.6269807863184,454.66780460253557,571.247453956577,476.1523203036397,
T7,645.8284194361261,662.7240734471175,673.0812411506998,689.3008264162444,499.34558206751126,
Pz,492.2026503528156,135.58363015262978,259.0410054469351,377.6220616654126,223.0937316038102,
T8,1074.2534881427223,462.1829434316169,281.4819676187767,414.5500061563329,470.2361011892963,
AF4,230.8136738547348,327.69763516916373,416.8961820361438,265.4590786392799,242.12408032420893,
AF3,341.6515528669877,659.6269807863184,454.66780460253557,571.247453956577,476.1523203036397,
T7,645.8284194361261,662.7240734471175,673.0812411506998,689.3008264162444,499.34558206751126,
Pz,492.2026503528156,135.58363015262978,259.0410054469351,377.6220616654126,223.0937316038102,
T8,1074.2534881427223,462.1829434316169,281.4819676187767,414.5500061563329,470.2361011892963,
AF4,230.8136738547348,327.69763516916373,416.8961820361438,265.4590786392799,242.12408032420893,
AF3,341.6515528669877,659.6269807863184,454.66780460253557,571.247453956577,476.1523203036397,
T7,645.8284194361261,662.7240734471175,673.0812411506998,689.3008264162444,499.34558206751126,
Pz,492.2026503528156,135.58363015262978,259.0410054469351,377.6220616654126,223.0937316038102,
T8,1074.2534881427223,462.1829434316169,281.4819676187767,414.5500061563329,470.2361011892963,
AF4,230.8136738547348,327.69763516916373,416.8961820361438,265.4590786392799,242.12408032420893,
AF3,341.6515528669877,659.6269807863184,454.66780460253557,571.247453956577,476.1523203036397,
T7,645.8284194361261,662.7240734471175,673.0812411506998,689.3008264162444,499.34558206751126,
Pz,492.2026503528156,135.58363015262978,259.0410054469351,377.6220616654126,223.0937316038102,
T8,1074.2534881427223,462.1829434316169,281.4819676187767,414.5500061563329,470.2361011892963,
AF4,230.8136738547348,327.69763516916373,416.8961820361438,265.4590786392799,242.12408032420893,
AF3,341.6515528669877,659.6269807863184,454.66780460253557,571.247453956577,476.1523203036397,
T7,645.8284194361261,662.7240734471175,673.0812411506998,689.3008264162444,499.34558206751126,
Pz,492.2026503528156,135.58363015262978,259.0410054469351,377.6220616654126,223.0937316038102,
T8,1074.2534881427223,462.1829434316169,281.4819676187767,414.5500061563329,470.2361011892963,
AF4,230.8136738547348,327.69763516916373,416.8961820361438,265.4590786392799,242.12408032420893,
AF3,341.6515528669877,659.6269807863184,454.66780460253557,571.247453956577,476.1523203036397,
T7,645.8284194361261,662.7240734471175,673.0812411506998,689.3008264162444,499.34558206751126,
Pz,492.2026503528156,135.58363015262978,259.0410054469351,377.6220616654126,223.0937316038102,
T8,1074.2534881427223,462.1829434316169,281.4819676187767,414.5500061563329,470.2361011892963,
AF4,230.8136738547348,327.69763516916373,416.8961820361438,265.4590786392799,242.12408032420893,
AF3,341.6515528669877,659.6269807863184,454.66780460253557,571.247453956577,476.1523203036397,
T7,645.8284194361261,662.7240734471175,673.0812411506998,689.3008264162444,499.34558206751126,
Pz,492.2026503528156,135.58363015262978,259.0410054469351,377.6220616654126,223.0937316038102,
T8,1074.2534881427223,462.1829434316169,281.4819676187767,414.5500061563329,470.2361011892963,
AF4,230.8136738547348,327.69763516916373,416.8961820361438,265.4590786392799,242.12408032420893,
AF3,341.6515528669877,659.6269807863184,454.66780460253557,571.247453956577,476.1523203036397,
T7,645.8284194361261,662.7240734471175,673.0812411506998,689.3008264162444,499.34558206751126,
Pz,492.2026503528156,135.58363015262978,259.0410054469351,377.6220616654126,223.0937316038102,
T8,1074.2534881427223,462.1829434316169,281.4819676187767,414.5500061563329,470.2361011892963,
AF4,230.8136738547348,327.69763516916373,416.8961820361438,265.4590786392799,242.12408032420893,
AF3,341.6515528669877,659.6269807863184,454.66780460253557,571.247453956577,476.1523203036397,
T7,645.8284194361261,662.7240734471175,673.0812411506998,689.3008264162444,499.34558206751126,
Pz,492.2026503528156,135.58363015262978,259.0410054469351,377.6220616654126,223.0937316038102,
T8,1074.2534881427223,462.1829434316169,281.4819676187767,414.5500061563329,470.2361011892963,
AF4,230.8136738547348,327.69763516916373,416.8961820361438,265.4590786392799,242.12408032420893,
AF3,341.6515528669877,659.6269807863184,454.66780460253557,571.247453956577,476.1523203036397,
T7,645.8284194361261,662.7240734471175,673.0812411506998,689.3008264162444,499.34558206751126,
Pz,492.2026503528156,135.58363015262978,259.0410054469351,377.6220616654126,223.0937316038102,
T8,1074.2534881427223,462.1829434316169,281.4819676187767,414.5500061563329,470.2361011892963,
AF4,230.8136738547348,327.69763516916373,416.8961820361438,265.4590786392799,242.12408032420893,
AF3,341.6515528669877,659.6269807863184,454.66780460253557,571.247453956577,476.1523203036397,
T7,645.8284194361261,662.7240734471175,673.0812411506998,689.3008264162444,499.34558206751126,
Pz,492.2026503528156,135.58363015262978,259.0410054469351,377.6220616654126,223.0937316038102,
T8,1074.2534881427223,462.1829434316169,281.4819676187767,414.5500061563329,470.2361011892963,
AF4,230.8136738547348,327.69763516916373,416.8961820361438,265.4590786392799,242.12408032420893,
AF3,341.6515528669877,659.6269807863184,454.66780460253557,571.247453956577,476.1523203036397,
T7,645.8284194361261,662.7240734471175,673.0812411506998,689.3008264162444,499.34558206751126,
Pz,492.2026503528156,135.58363015262978,259.0410054469351,377.6220616654126,223.0937316038102,
T8,1074.2534881427223,462.1829434316169,281.4819676187767,414.5500061563329,470.2361011892963,
AF4,230.8136738547348,327.69763516916373,416.8961820361438,265.4590786392799,242.12408032420893,
AF3,341.6515528669877,659.6269807863184,454.66780460253557,571.247453956577,476.1523203036397,
T7,645.8284194361261,662.7240734471175,673.0812411506998,689.3008264162444,499.34558206751126,
Pz,492.2026503528156,135.58363015262978,259.0410054469351,377.6220616654126,223.0937316038102,
T8,1074.2534881427223,462.1829434316169,281.4819676187767,414.5500061563329,470.2361011892963,
AF4,230.8136738547348,327.69763516916373,416.8961820361438,265.4590786392799,242.12408032420893,
AF3,341.6515528669877,659.6269807863184,454.66780460253557,571.247453956577,476.1523203036397,
T7,645.8284194361261,662.7240734471175,673.0812411506998,689.3008264162444,499.34558206751126,
Pz,492.2026503528156,135.58363015262978,259.0410054469351,377.6220616654126,223.0937316038102,
T8,1074.2534881427223,462.1829434316169,281.4819676187767,414.5500061563329,470.2361011892963,
AF4,230.8136738547348,327.69763516916373,416.8961820361438,265.4590786392799,242.12408032420893,
AF3,341.6515528669877,659.6269807863184,454.66780460253557,571.247453956577,476.1523203036397,
T7,645.8284194361261,662.7240734471175,673.0812411506998,689.3008264162444,499.34558206751126,
Pz,492.2026503528156,135.58363015262978,259.0410054469351,377.6220616654126,223.0937316038102,
T8,1074.2534881427223,462.1829434316169,281.4819676187767,414.5500061563329,470.2361011892963,
AF4,230.8136738547348,327.69763516916373,416.8961820361438,265.4590786392799,242.12408032420893,
AF3,341.6515528669877,659.6269807863184,454.66780460253557,571.247453956577,476.1523203036397,
T7,645.8284194361261,662.7240734471175,673.0812411506998,689.3008264162444,499.34558206751126,
Pz,492.2026503528156,135.58363015262978,259.0410054469351,377.6220616654126,223.0937316038102,
T8,1074.2534881427223,462.1829434316169,281.4819676187767,414.5500061563329,470.2361011892963,
AF4,230.8136738547348,327.69763516916373,416.8961820361438,265.4590786392799,242.12408032420893,
AF3,341.6515528669877,659.6269807863184,454.66780460253557,571.247453956577,476.1523203036397,
T7,645.8284194361261,662.7240734471175,673.0812411506998,689.3008264162444,499.34558206751126,
Pz,492.2026503528156,135.58363015262978,259.0410054469351,377.6220616654126,223.0937316038102,
T8,1074.2534881427223,462.1829434316169,281.4819676187767,414.5500061563329,470.2361011892963,
AF4,230.8136738547348,327.69763516916373,416.8961820361438,265.4590786392799,242.12408032420893,
AF3,341.6515528669877,659.6269807863184,454.66780460253557,571.247453956577,476.1523203036397,
T7,645.8284194361261,662.7240734471175,673.0812411506998,689.3008264162444,499.34558206751126,
Pz,492.2026503528156,135.58363015262978,259.0410054469351,377.6220616654126,223.0937316038102,
T8,1074.2534881427223,462.1829434316169,281.4819676187767,414.5500061563329,470.2361011892963,
AF4,230.8136738547348,327.69763516916373,416.8961820361438,265.4590786392799,242.12408032420893,
AF3,341.6515528669877,659.6269807863184,454.66780460253557,571.247453956577,476.1523203036397,
T7,645.8284194361261,662.7240734471175,673.0812411506998,689.3008264162444,499.34558206751126,
Pz,492.2026503528156,135.58363015262978,259.0410054469351,377.6220616654126,223.0937316038102,
T8,1074.2534881427223,462.1829434316169,281.4819676187767,414.5500061563329,470.2361011892963,
AF4,230.8136738547348,327.69763516916373,416.8961820361438,265.4590786392799,242.12408032420893,
AF3,341.6515528669877,659.6269807863184,454.66780460253557,571.247453956577,476.1523203036397,
T7,645.8284194361261,662.7240734471175,673.0812411506998,689.3008264162444,499.34558206751126,
Pz,492.2026503528156,135.58363015262978,259.0410054469351,377.6220616654126,223.0937316038102,
T8,1074.2534881427223,462.1829434316169,281.4819676187767,414.5500061563329,470.2361011892963,
AF4,230.8136738547348,327.69763516916373,416.8961820361438,265.4590786392799,242.12408032420893,
AF3,341.6515528669877,659.6269807863184,454.66780460253557,571.247453956577,476.1523203036397,
T7,645.8284194361261,662.7240734471175,673.0812411506998,689.3008264162444,499.34558206751126,
Pz,492.2026503528156,135.58363015262978,259.0410054469351,377.6220616654126,223.0937316038102,
T8,1074.2534881427223,462.1829434316169,281.4819676187767,414.5500061563329,470.2361011892963,
AF4,230.8136738547348,327.69763516916373,416.8961820361438,265.4590786392799,242.12408032420893,
AF3,341.6515528669877,659.6269807863184,454.66780460253557,571.247453956577,476.1523203036397,
T7,645.8284194361261,662.7240734471175,673.0812411506998,689.3008264162444,499.34558206751126,
Pz,492.2026503528156,135.58363015262978,259.0410054469351,377.6220616654126,223.0937316038102,
T8,1074.2534881427223,462.1829434316169,281.4819676187767,414.5500061563329,470.2361011892963,
AF4,230.8136738547348,327.69763516916373,416.8961820361438,265.4590786392799,242.12408032420893,
AF3,341.6515528669877,659.6269807863184,454.66780460253557,571.247453956577,476.1523203036397,
T7,645.8284194361261,662.7240734471175,673.0812411506998,689.3008264162444,499.34558206751126,
Pz,492.2026503528156,135.58363015262978,259.0410054469351,377.6220616654126,223.0937316038102,
T8,1074.2534881427223,462.1829434316169,281.4819676187767,414.5500061563329,470.2361011892963,
AF4,230.8136738547348,327.69763516916373,416.8961820361438,265.4590786392799,242.12408032420893,
AF3,341.6515528669877,659.6269807863184,454.66780460253557,571.247453956577,476.1523203036397,
T7,645.8284194361261,662.7240734471175,673.0812411506998,689.3008264162444,499.34558206751126,
Pz,492.2026503528156,135.58363015262978,259.0410054469351,377.6220616654126,223.0937316038102,
T8,1074.2534881427223,462.1829434316169,281.4819676187767,414.5500061563329,470.2361011892963,
AF4,230.8136738547348,327.69763516916373,416.8961820361438,265.4590786392799,242.12408032420893,
AF3,341.6515528669877,659.6269807863184,454.66780460253557,571.247453956577,476.1523203036397,
T7,645.8284194361261,662.7240734471175,673.0812411506998,689.3008264162444,499.34558206751126,
Pz,492.2026503528156,135.58363015262978,259.0410054469351,377.6220616654126,223.0937316038102,
T8,1074.2534881427223,462.1829434316169,281.4819676187767,414.5500061563329,470.2361011892963,
AF4,230.8136738547348,327.69763516916373,416.8961820361438,265.4590786392799,242.12408032420893,
AF3,341.6515528669877,659.6269807863184,454.66780460253557,571.247453956577,476.1523203036397,
T7,645.8284194361261,662.7240734471175,673.0812411506998,689.3008264162444,499.34558206751126,
Pz,492.2026503528156,135.58363015262978,259.0410054469351,377.6220616654126,223.0937316038102,
T8,1074.2534881427223,462.1829434316169,281.4819676187767,414.5500061563329,470.2361011892963,
AF4,230.8136738547348,327.69763516916373,416.8961820361438,265.4590786392799,242.12408032420893,
AF3,341.6515528669877,659.6269807863184,454.66780460253557,571.247453956577,476.1523203036397,
T7,645.8284194361261,662.7240734471175,673.0812411506998,689.3008264162444,499.34558206751126,
Pz,492.2026503528156,135.58363015262978,259.0410054469351,377.6220616654126,223.0937316038102,
T8,1074.2534881427223,462.1829434316169,281.4819676187767,414.5500061563329,470.2361011892963,
AF4,230.8136738547348,327.69763516916373,416.8961820361438,265.4590786392799,242.12408032420893,
AF3,341.6515528669877,659.6269807863184,454.66780460253557,571.247453956577,476.1523203036397,
T7,645.8284194361261,662.7240734471175,673.0812411506998,689.3008264162444,499.34558206751126,
Pz,492.2026503528156,135.58363015262978,259.0410054469351,377.6220616654126,223.0937316038102,
T8,1074.2534881427223,462.1829434316169,281.4819676187767,414.5500061563329,470.2361011892963,
AF4,230.8136738547348,327.69763516916373,416.8961820361438,265.4590786392799,242.12408032420893,
AF3,341.6515528669877,659.6269807863184,454.66780460253557,571.247453956577,476.1523203036397,
T7,645.8284194361261,662.7240734471175,673.0812411506998,689.3008264162444,499.34558206751126,
Pz,492.2026503528156,135.58363015262978,259.0410054469351,377.6220616654126,223.0937316038102,
T8,1074.2534881427223,462.1829434316169,281.4819676187767,414.5500061563329,470.2361011892963,
AF4,230.8136738547348,327.69763516916373,416.8961820361438,265.4590786392799,242.12408032420893,
AF3,341.6515528669877,659.6269807863184,454.66780460253557,571.247453956577,476.1523203036397,
T7,645.8284194361261,662.7240734471175,673.0812411506998,689.3008264162444,499.34558206751126,
Pz,492.2026503528156,135.58363015262978,259.0410054469351,377.6220616654126,223.0937316038102,
T8,1074.2534881427223,462.1829434316169,281.4819676187767,414.5500061563329,470.2361011892963,
AF4,230.8136738547348,327.69763516916373,416.8961820361438,265.4590786392799,242.12408032420893,
AF3,341.6515528669877,659.6269807863184,454.66780460253557,571.247453956577,476.1523203036397,
T7,645.8284194361261,662.7240734471175,673.0812411506998,689.3008264162444,499.34558206751126,
Pz,492.2026503528156,135.58363015262978,259.0410054469351,377.6220616654126,223.0937316038102,
T8,1074.2534881427223,462.1829434316169,281.4819676187767,414.5500061563329,470.2361011892963,
AF4,230.8136738547348,327.69763516916373,416.8961820361438,265.4590786392799,242.12408032420893,
AF3,341.6515528669877,659.6269807863184,454.66780460253557,571.247453956577,476.1523203036397,
T7,645.8284194361261,662.7240734471175,673.0812411506998,689.3008264162444,499.34558206751126,
Pz,492.2026503528156,135.58363015262978,259.0410054469351,377.6220616654126,223.0937316038102,
T8,1074.2534881427223,462.1829434316169,281.4819676187767,414.5500061563329,470.2361011892963,
AF4,230.8136738547348,327.69763516916373,416.8961820361438,265.4590786392799,242.12408032420893,
AF3,341.6515528669877,659.6269807863184,454.66780460253557,571.247453956577,476.1523203036397,
T7,645.8284194361261,662.7240734471175,673.0812411506998,689.3008264162444,499.34558206751126,
Pz,492.2026503528156,135.58363015262978,259.0410054469351,377.6220616654126,223.0937316038102,
T8,1074.2534881427223,462.1829434316169,281.4819676187767,414.5500061563329,470.2361011892963,
AF4,230.8136738547348,327.69763516916373,416.8961820361438,265.4590786392799,242.12408032420893,
AF3,341.6515528669877,659.6269807863184,454.66780460253557,571.247453956577,476.1523203036397,
T7,645.8284194361261,662.7240734471175,673.0812411506998,689.3008264162444,499.34558206751126,
Pz,492.2026503528156,135.58363015262978,259.0410054469351,377.6220616654126,223.0937316038102,
T8,1074.2534881427223,462.1829434316169,281.4819676187767,414.5500061563329,470.2361011892963,
AF4,230.8136738547348,327.69763516916373,416.8961820361438,265.4590786392799,242.12408032420893,
AF3,341.6515528669877,659.6269807863184,454.66780460253557,571.247453956577,476.1523203036397,
T7,645.8284194361261,662.7240734471175,673.0812411506998,689.3008264162444,499.34558206751126,
Pz,492.2026503528156,135.58363015262978,259.0410054469351,377.6220616654126,223.0937316038102,
T8,1074.2534881427223,462.1829434316169,281.4819676187767,414.5500061563329,470.2361011892963,
AF4,230.8136738547348,327.69763516916373,416.8961820361438,265.4590786392799,242.12408032420893,
AF3,341.6515528669877,659.6269807863184,454.66780460253557,571.247453956577,476.1523203036397,
T7,645.8284194361261,662.7240734471175,673.0812411506998,689.3008264162444,499.34558206751126,
Pz,492.2026503528156,135.58363015262978,259.0410054469351,377.6220616654126,223.0937316038102,
T8,1074.2534881427223,462.1829434316169,281.4819676187767,414.5500061563329,470.2361011892963,
AF4,230.8136738547348,327.69763516916373,416.8961820361438,265.4590786392799,242.12408032420893,
AF3,341.6515528669877,659.6269807863184,454.66780460253557,571.247453956577,476.1523203036397,
T7,645.8284194361261,662.7240734471175,673.0812411506998,689.3008264162444,499.34558206751126,
Pz,492.2026503528156,135.58363015262978,259.0410054469351,377.6220616654126,223.0937316038102,
T8,1074.2534881427223,462.1829434316169,281.4819676187767,414.5500061563329,470.2361011892963,
AF4,230.8136738547348,327.69763516916373,416.8961820361438,265.4590786392799,242.12408032420893,
AF3,341.6515528669877,659.6269807863184,454.66780460253557,571.247453956577,476.1523203036397,
T7,645.8284194361261,662.7240734471175,673.0812411506998,689.3008264162444,499.34558206751126,
Pz,492.2026503528156,135.58363015262978,259.0410054469351,377.6220616654126,223.0937316038102,
T8,1074.2534881427223,462.1829434316169,281.4819676187767,414.5500061563329,470.2361011892963,
AF4,230.8136738547348,327.69763516916373,416.8961820361438,265.4590786392799,242.12408032420893,
AF3,341.6515528669877,659.6269807863184,454.66780460253557,571.247453956577,476.1523203036397,
T7,645.8284194361261,662.7240734471175,673.0812411506998,689.3008264162444,499.34558206751126,
Pz,492.2026503528156,135.58363015262978,259.0410054469351,377.6220616654126,223.0937316038102,
T8,1074.2534881427223,462.1829434316169,281.4819676187767,414.5500061563329,470.2361011892963,
AF4,230.8136738547348,327.69763516916373,416.8961820361438,265.4590786392799,242.12408032420893,
AF3,341.6515528669877,659.6269807863184,454.66780460253557,571.247453956577,476.1523203036397,
T7,645.8284194361261,662.7240734471175,673.0812411506998,689.3008264162444,499.34558206751126,
Pz,492.2026503528156,135.58363015262978,259.0410054469351,377.6220616654126,223.0937316038102,
T8,1074.2534881427223,462.1829434316169,281.4819676187767,414.5500061563329,470.2361011892963,
AF4,230.8136738547348,327.69763516916373,416.8961820361438,265.4590786392799,242.12408032420893,
AF3,341.6515528669877,659.6269807863184,454.66780460253557,571.247453956577,476.1523203036397,
T7,645.8284194361261,662.7240734471175,673.0812411506998,689.3008264162444,499.34558206751126,
Pz,492.2026503528156,135.58363015262978,259.0410054469351,377.6220616654126,223.0937316038102,
T8,1074.2534881427223,462.1829434316169,281.4819676187767,414.5500061563329,470.2361011892963,
AF4,230.8136738547348,327.69763516916373,416.8961820361438,265.4590786392799,242.12408032420893,
AF3,341.6515528669877,659.6269807863184,454.66780460253557,571.247453956577,476.1523203036397,
T7,645.8284194361261,662.7240734471175,673.0812411506998,689.3008264162444,499.34558206751126,
Pz,492.2026503528156,135.58363015262978,259.0410054469351,377.6220616654126,223.0937316038102,
T8,1074.2534881427223,462.1829434316169,281.4819676187767,414.5500061563329,470.2361011892963,
AF4,230.8136738547348,327.69763516916373,416.8961820361438,265.4590786392799,242.12408032420893,
AF3,341.6515528669877,659.6269807863184,454.66780460253557,571.247453956577,476.1523203036397,
T7,645.8284194361261,662.7240734471175,673.0812411506998,689.3008264162444,499.34558206751126,
Pz,492.2026503528156,135.58363015262978,259.0410054469351,377.6220616654126,223.0937316038102,
T8,1074.2534881427223,462.1829434316169,281.4819676187767,414.5500061563329,470.2361011892963,
AF4,230.8136738547348,327.69763516916373,416.8961820361438,265.4590786392799,242.12408032420893,
AF3,341.6515528669877,659.6269807863184,454.66780460253557,571.247453956577,476.1523203036397,
T7,645.8284194361261,662.7240734471175,673.0812411506998,689.3008264162444,499.34558206751126,
Pz,492.2026503528156,135.58363015262978,259.0410054469351,377.6220616654126,223.0937316038102,
T8,1074.2534881427223,462.1829434316169,281.4819676187767,414.5500061563329,470.2361011892963,
AF4,230.8136738547348,327.69763516916373,416.8961820361438,265.4590786392799,242.12408032420893,
AF3,341.6515528669877,659.6269807863184,454.66780460253557,571.247453956577,476.1523203036397,
T7,645.8284194361261,662.7240734471175,673.0812411506998,689.3008264162444,499.34558206751126,
Pz,492.2026503528156,135.58363015262978,259.0410054469351,377.6220616654126,223.0937316038102,
T8,1074.2534881427223,462.1829434316169,281.4819676187767,414.5500061563329,470.2361011892963,
AF4,230.8136738547348,327.69763516916373,416.8961820361438,265.4590786392799,242.12408032420893,
AF3,341.6515528669877,659.6269807863184,454.66780460253557,571.247453956577,476.1523203036397,
T7,645.8284194361261,662.7240734471175,673.0812411506998,689.3008264162444,499.34558206751126,
Pz,492.2026503528156,135.58363015262978,259.0410054469351,377.6220616654126,223.0937316038102,
T8,1074.2534881427223,462.1829434316169,281.4819676187767,414.5500061563329,470.2361011892963,
AF4,230.8136738547348,327.69763516916373,416.8961820361438,265.4590786392799,242.12408032420893,
AF3,341.6515528669877,659.6269807863184,454.66780460253557,571.247453956577,476.1523203036397,
T7,645.8284194361261,662.7240734471175,673.0812411506998,689.3008264162444,499.34558206751126,
Pz,492.2026503528156,135.58363015262978,259.0410054469351,377.6220616654126,223.0937316038102,
T8,1074.2534881427223,462.1829434316169,281.4819676187767,414.5500061563329,470.2361011892963,
AF4,230.8136738547348,327.69763516916373,416.8961820361438,265.4590786392799,242.12408032420893,
AF3,341.6515528669877,659.6269807863184,454.66780460253557,571.247453956577,476.1523203036397,
T7,645.8284194361261,662.7240734471175,673.0812411506998,689.3008264162444,499.34558206751126,
Pz,492.2026503528156,135.58363015262978,259.0410054469351,377.6220616654126,223.0937316038102,
T8,1074.2534881427223,462.1829434316169,281.4819676187767,414.5500061563329,470.2361011892963,
AF4,230.8136738547348,327.69763516916373,416.8961820361438,265.4590786392799,242.12408032420893,
AF3,341.6515528669877,659.6269807863184,454.66780460253557,571.247453956577,476.1523203036397,
T7,645.8284194361261,662.7240734471175,673.0812411506998,689.3008264162444,499.34558206751126,
Pz,492.2026503528156,135.58363015262978,259.0410054469351,377.6220616654126,223.0937316038102,
T8,1074.2534881427223,462.1829434316169,281.4819676187767,414.5500061563329,470.2361011892963,
AF4,230.8136738547348,327.69763516916373,416.8961820361438,265.4590786392799,242.12408032420893,
AF3,341.6515528669877,659.6269807863184,454.66780460253557,571.247453956577,476.1523203036397,
T7,645.8284194361261,662.7240734471175,673.0812411506998,689.3008264162444,499.34558206751126,
Pz,492.2026503528156,135.58363015262978,259.0410054469351,377.6220616654126,223.0937316038102,
T8,1074.2534881427223,462.1829434316169,281.4819676187767,414.5500061563329,470.2361011892963,
AF4,230.8136738547348,327.69763516916373,416.8961820361438,265.4590786392799,242.12408032420893,
AF3,341.6515528669877,659.6269807863184,454.66780460253557,571.247453956577,476.1523203036397,
T7,645.8284194361261,662.7240734471175,673.0812411506998,689.3008264162444,499.34558206751126,
Pz,492.2026503528156,135.58363015262978,259.0410054469351,377.6220616654126,223.0937316038102,
T8,1074.2534881427223,462.1829434316169,281.4819676187767,414.5500061563329,470.2361011892963,
AF4,230.8136738547348,327.69763516916373,416.8961820361438,265.4590786392799,242.12408032420893,
AF3,341.6515528669877,659.6269807863184,454.66780460253557,571.247453956577,476.1523203036397,
T7,645.8284194361261,662.7240734471175,673.0812411506998,689.3008264162444,499.34558206751126,
Pz,492.2026503528156,135.58363015262978,259.0410054469351,377.6220616654126,223.0937316038102,
T8,1074.2534881427223,462.1829434316169,281.4819676187767,414.5500061563329,470.2361011892963,
AF4,230.8136738547348,327.69763516916373,416.8961820361438,265.4590786392799,242.12408032420893,
AF3,341.6515528669877,659.6269807863184,454.66780460253557,571.247453956577,476.1523203036397,
T7,645.8284194361261,662.7240734471175,673.0812411506998,689.3008264162444,499.34558206751126,
Pz,492.2026503528156,135.58363015262978,259.0410054469351,377.6220616654126,223.0937316038102,
T8,1074.2534881427223,462.1829434316169,281.4819676187767,414.5500061563329,470.2361011892963,
AF4,230.8136738547348,327.69763516916373,416.8961820361438,265.4590786392799,242.12408032420893,
AF3,341.6515528669877,659.6269807863184,454.66780460253557,571.247453956577,476.1523203036397,
T7,645.8284194361261,662.7240734471175,673.0812411506998,689.3008264162444,499.34558206751126,
Pz,492.2026503528156,135.58363015262978,259.0410054469351,377.6220616654126,223.0937316038102,
T8,1074.2534881427223,462.1829434316169,281.4819676187767,414.5500061563329,470.2361011892963,
AF4,230.8136738547348,327.69763516916373,416.8961820361438,265.4590786392799,242.12408032420893,
AF3,341.6515528669877,659.6269807863184,454.66780460253557,571.247453956577,476.1523203036397,
T7,645.8284194361261,662.7240734471175,673.0812411506998,689.3008264162444,499.34558206751126,
Pz,492.2026503528156,135.58363015262978,259.0410054469351,377.6220616654126,223.0937316038102,
T8,1074.2534881427223,462.1829434316169,281.4819676187767,414.5500061563329,470.2361011892963,
AF4,230.8136738547348,327.69763516916373,416.8961820361438,265.4590786392799,242.12408032420893,
AF3,341.6515528669877,659.6269807863184,454.66780460253557,571.247453956577,476.1523203036397,
T7,645.8284194361261,662.7240734471175,673.0812411506998,689.3008264162444,499.34558206751126,
Pz,492.2026503528156,135.58363015262978,259.0410054469351,377.6220616654126,223.0937316038102,
T8,1074.2534881427223,462.1829434316169,281.4819676187767,414.5500061563329,470.2361011892963,
AF4,230.8136738547348,327.69763516916373,416.8961820361438,265.4590786392799,242.12408032420893,
AF3,341.6515528669877,659.6269807863184,454.66780460253557,571.247453956577,476.1523203036397,
T7,645.8284194361261,662.7240734471175,673.0812411506998,689.3008264162444,499.34558206751126,
Pz,492.2026503528156,135.58363015262978,259.0410054469351,377.6220616654126,223.0937316038102,
T8,1074.2534881427223,462.1829434316169,281.4819676187767,414.5500061563329,470.2361011892963,
AF4,230.8136738547348,327.69763516916373,416.8961820361438,265.4590786392799,242.12408032420893,
AF3,341.6515528669877,659.6269807863184,454.66780460253557,571.247453956577,476.1523203036397,
T7,645.8284194361261,662.7240734471175,673.0812411506998,689.3008264162444,499.34558206751126,
Pz,492.2026503528156,135.58363015262978,259.0410054469351,377.6220616654126,223.0937316038102,
T8,1074.2534881427223,462.1829434316169,281.4819676187767,414.5500061563329,470.2361011892963,
AF4,230.8136738547348,327.69763516916373,416.8961820361438,265.4590786392799,242.12408032420893,
AF3,341.6515528669877,659.6269807863184,454.66780460253557,571.247453956577,476.1523203036397,
T7,645.8284194361261,662.7240734471175,673.0812411506998,689.3008264162444,499.34558206751126,
Pz,492.2026503528156,135.58363015262978,259.0410054469351,377.6220616654126,223.0937316038102,
T8,1074.2534881427223,462.1829434316169,281.4819676187767,414.5500061563329,470.2361011892963,
AF4,230.8136738547348,327.69763516916373,416.8961820361438,265.4590786392799,242.12408032420893,
AF3,341.6515528669877,659.6269807863184,454.66780460253557,571.247453956577,476.1523203036397,
T7,645.8284194361261,662.7240734471175,673.0812411506998,689.3008264162444,499.34558206751126,
Pz,492.2026503528156,135.58363015262978,259.0410054469351,377.6220616654126,223.0937316038102,
T8,1074.2534881427223,462.1829434316169,281.4819676187767,414.5500061563329,470.2361011892963,
AF4,230.8136738547348,327.69763516916373,416.8961820361438,265.4590786392799,242.12408032420893,
AF3,341.6515528669877,659.6269807863184,454.66780460253557,571.247453956577,476.1523203036397,
T7,645.8284194361261,662.7240734471175,673.0812411506998,689.3008264162444,499.34558206751126,
Pz,492.2026503528156,135.58363015262978,259.0410054469351,377.6220616654126,223.0937316038102,
T8,1074.2534881427223,462.1829434316169,281.4819676187767,414.5500061563329,470.2361011892963,
AF4,230.8136738547348,327.69763516916373,416.8961820361438,265.4590786392799,242.12408032420893,
AF3,341.6515528669877,659.6269807863184,454.66780460253557,571.247453956577,476.1523203036397,
T7,645.8284194361261,662.7240734471175,673.0812411506998,689.3008264162444,499.34558206751126,
Pz,492.2026503528156,135.58363015262978,259.0410054469351,377.6220616654126,223.0937316038102,
T8,1074.2534881427223,462.1829434316169,281.4819676187767,414.5500061563329,470.2361011892963,
AF4,230.8136738547348,327.69763516916373,416.8961820361438,265.4590786392799,242.12408032420893,
AF3,341.6515528669877,659.6269807863184,454.66780460253557,571.247453956577,476.1523203036397,
T7,645.8284194361261,662.7240734471175,673.0812411506998,689.3008264162444,499.34558206751126,
Pz,492.2026503528156,135.58363015262978,259.0410054469351,377.6220616654126,223.0937316038102,
T8,1074.2534881427223,462.1829434316169,281.4819676187767,414.5500061563329,470.2361011892963,
AF4,230.8136738547348,327.69763516916373,416.8961820361438,265.4590786392799,242.12408032420893,
AF3,341.6515528669877,659.6269807863184,454.66780460253557,571.247453956577,476.1523203036397,
T7,645.8284194361261,662.7240734471175,673.0812411506998,689.3008264162444,499.34558206751126,
Pz,492.2026503528156,135.58363015262978,259.0410054469351,377.6220616654126,223.0937316038102,
T8,1074.2534881427223,462.1829434316169,281.4819676187767,414.5500061563329,470.2361011892963,
AF4,230.8136738547348,327.69763516916373,416.8961820361438,265.4590786392799,242.12408032420893,
AF3,341.6515528669877,659.6269807863184,454.66780460253557,571.247453956577,476.1523203036397,
T7,645.8284194361261,662.7240734471175,673.0812411506998,689.3008264162444,499.34558206751126,
Pz,492.2026503528156,135.58363015262978,259.0410054469351,377.6220616654126,223.0937316038102,
T8,1074.2534881427223,462.1829434316169,281.4819676187767,414.5500061563329,470.2361011892963,
AF4,230.8136738547348,327.69763516916373,416.8961820361438,265.4590786392799,242.12408032420893,
AF3,341.6515528669877,659.6269807863184,454.66780460253557,571.247453956577,476.1523203036397,
T7,645.8284194361261,662.7240734471175,673.0812411506998,689.3008264162444,499.34558206751126,
Pz,492.2026503528156,135.58363015262978,259.0410054469351,377.6220616654126,223.0937316038102,
T8,1074.2534881427223,462.1829434316169,281.4819676187767,414.5500061563329,470.2361011892963,
AF4,230.8136738547348,327.69763516916373,416.8961820361438,265.4590786392799,242.12408032420893,
AF3,341.6515528669877,659.6269807863184,454.66780460253557,571.247453956577,476.1523203036397,
T7,645.8284194361261,662.7240734471175,673.0812411506998,689.3008264162444,499.34558206751126,
Pz,492.2026503528156,135.58363015262978,259.0410054469351,377.6220616654126,223.0937316038102,
T8,1074.2534881427223,462.1829434316169,281.4819676187767,414.5500061563329,470.2361011892963,
AF4,230.8136738547348,327.69763516916373,416.8961820361438,265.4590786392799,242.12408032420893,
AF3,341.6515528669877,659.6269807863184,454.66780460253557,571.247453956577,476.1523203036397,
T7,645.8284194361261,662.7240734471175,673.0812411506998,689.3008264162444,499.34558206751126,
Pz,492.2026503528156,135.58363015262978,259.0410054469351,377.6220616654126,223.0937316038102,
T8,1074.2534881427223,462.1829434316169,281.4819676187767,414.5500061563329,470.2361011892963,
AF4,230.8136738547348,327.69763516916373,416.8961820361438,265.4590786392799,242.12408032420893,
AF3,341.6515528669877,659.6269807863184,454.66780460253557,571.247453956577,476.1523203036397,
T7,645.8284194361261,662.7240734471175,673.0812411506998,689.3008264162444,499.34558206751126,
Pz,492.2026503528156,135.58363015262978,259.0410054469351,377.6220616654126,223.0937316038102,
T8,1074.2534881427223,462.1829434316169,281.4819676187767,414.5500061563329,470.2361011892963,
AF4,230.8136738547348,327.69763516916373,416.8961820361438,265.4590786392799,242.12408032420893,
AF3,341.6515528669877,659.6269807863184,454.66780460253557,571.247453956577,476.1523203036397,
T7,645.8284194361261,662.7240734471175,673.0812411506998,689.3008264162444,499.34558206751126,
Pz,492.2026503528156,135.58363015262978,259.0410054469351,377.6220616654126,223.0937316038102,
T8,1074.2534881427223,462.1829434316169,281.4819676187767,414.5500061563329,470.2361011892963,
AF4,230.8136738547348,327.69763516916373,416.8961820361438,265.4590786392799,242.12408032420893,
AF3,341.6515528669877,659.6269807863184,454.66780460253557,571.247453956577,476.1523203036397,
T7,645.8284194361261,662.7240734471175,673.0812411506998,689.3008264162444,499.34558206751126,
Pz,492.2026503528156,135.58363015262978,259.0410054469351,377.6220616654126,223.0937316038102,
T8,1074.2534881427223,462.1829434316169,281.4819676187767,414.5500061563329,470.2361011892963,
AF4,230.8136738547348,327.69763516916373,416.8961820361438,265.4590786392799,242.12408032420893,
AF3,341.6515528669877,659.6269807863184,454.66780460253557,571.247453956577,476.1523203036397,
T7,645.8284194361261,662.7240734471175,673.0812411506998,689.3008264162444,499.34558206751126,
Pz,492.2026503528156,135.58363015262978,259.0410054469351,377.6220616654126,223.0937316038102,
T8,1074.2534881427223,462.1829434316169,281.4819676187767,414.5500061563329,470.2361011892963,
AF4,230.8136738547348,327.69763516916373,416.8961820361438,265.4590786392799,242.12408032420893,
AF3,341.6515528669877,659.6269807863184,454.66780460253557,571.247453956577,476.1523203036397,
T7,645.8284194361261,662.7240734471175,673.0812411506998,689.3008264162444,499.34558206751126,
Pz,492.2026503528156,135.58363015262978,259.0410054469351,377.6220616654126,223.0937316038102,
T8,1074.2534881427223,462.1829434316169,281.4819676187767,414.5500061563329,470.2361011892963,
AF4,230.8136738547348,327.69763516916373,416.8961820361438,265.4590786392799,242.12408032420893,
AF3,341.6515528669877,659.6269807863184,454.66780460253557,571.247453956577,476.1523203036397,
T7,645.8284194361261,662.7240734471175,673.0812411506998,689.3008264162444,499.34558206751126,
Pz,492.2026503528156,135.58363015262978,259.0410054469351,377.6220616654126,223.0937316038102,
T8,1074.2534881427223,462.1829434316169,281.4819676187767,414.5500061563329,470.2361011892963,
AF4,230.8136738547348,327.69763516916373,416.8961820361438,265.4590786392799,242.12408032420893,
AF3,341.6515528669877,659.6269807863184,454.66780460253557,571.247453956577,476.1523203036397,
T7,645.8284194361261,662.7240734471175,673.0812411506998,689.3008264162444,499.34558206751126,
Pz,492.2026503528156,135.58363015262978,259.0410054469351,377.6220616654126,223.0937316038102,
T8,1074.2534881427223,462.1829434316169,281.4819676187767,414.5500061563329,470.2361011892963,
AF4,230.8136738547348,327.69763516916373,416.8961820361438,265.4590786392799,242.12408032420893,
AF3,341.6515528669877,659.6269807863184,454.66780460253557,571.247453956577,476.1523203036397,
T7,645.8284194361261,662.7240734471175,673.0812411506998,689.3008264162444,499.34558206751126,
Pz,492.2026503528156,135.58363015262978,259.0410054469351,377.6220616654126,223.0937316038102,
T8,1074.2534881427223,462.1829434316169,281.4819676187767,414.5500061563329,470.2361011892963,
AF4,230.8136738547348,327.69763516916373,416.8961820361438,265.4590786392799,242.12408032420893,
AF3,341.6515528669877,659.6269807863184,454.66780460253557,571.247453956577,476.1523203036397,
T7,645.8284194361261,662.7240734471175,673.0812411506998,689.3008264162444,499.34558206751126,
Pz,492.2026503528156,135.58363015262978,259.0410054469351,377.6220616654126,223.0937316038102,
T8,1074.2534881427223,462.1829434316169,281.4819676187767,414.5500061563329,470.2361011892963,
AF4,230.8136738547348,327.69763516916373,416.8961820361438,265.4590786392799,242.12408032420893,
AF3,341.6515528669877,659.6269807863184,454.66780460253557,571.247453956577,476.1523203036397,
T7,645.8284194361261,662.7240734471175,673.0812411506998,689.3008264162444,499.34558206751126,
Pz,492.2026503528156,135.58363015262978,259.0410054469351,377.6220616654126,223.0937316038102,
T8,1074.2534881427223,462.1829434316169,281.4819676187767,414.5500061563329,470.2361011892963,
AF4,230.8136738547348,327.69763516916373,416.8961820361438,265.4590786392799,242.12408032420893,
AF3,341.6515528669877,659.6269807863184,454.66780460253557,571.247453956577,476.1523203036397,
T7,645.8284194361261,662.7240734471175,673.0812411506998,689.3008264162444,499.34558206751126,
Pz,492.2026503528156,135.58363015262978,259.0410054469351,377.6220616654126,223.0937316038102,
T8,1074.2534881427223,462.1829434316169,281.4819676187767,414.5500061563329,470.2361011892963,
AF4,230.8136738547348,327.69763516916373,416.8961820361438,265.4590786392799,242.12408032420893,
AF3,341.6515528669877,659.6269807863184,454.66780460253557,571.247453956577,476.1523203036397,
T7,645.8284194361261,662.7240734471175,673.0812411506998,689.3008264162444,499.34558206751126,
Pz,492.2026503528156,135.58363015262978,259.0410054469351,377.6220616654126,223.0937316038102,
T8,1074.2534881427223,462.1829434316169,281.4819676187767,414.5500061563329,470.2361011892963,
AF4,230.8136738547348,327.69763516916373,416.8961820361438,265.4590786392799,242.12408032420893,
AF3,341.6515528669877,659.6269807863184,454.66780460253557,571.247453956577,476.1523203036397,
T7,645.8284194361261,662.7240734471175,673.0812411506998,689.3008264162444,499.34558206751126,
Pz,492.2026503528156,135.58363015262978,259.0410054469351,377.6220616654126,223.0937316038102,
T8,1074.2534881427223,462.1829434316169,281.4819676187767,414.5500061563329,470.2361011892963,
AF4,230.8136738547348,327.69763516916373,416.8961820361438,265.4590786392799,242.12408032420893,
AF3,341.6515528669877,659.6269807863184,454.66780460253557,571.247453956577,476.1523203036397,
T7,645.8284194361261,662.7240734471175,673.0812411506998,689.3008264162444,499.34558206751126,
Pz,492.2026503528156,135.58363015262978,259.0410054469351,377.6220616654126,223.0937316038102,
T8,1074.2534881427223,462.1829434316169,281.4819676187767,414.5500061563329,470.2361011892963,
AF4,230.8136738547348,327.69763516916373,416.8961820361438,265.4590786392799,242.12408032420893,
AF3,341.6515528669877,659.6269807863184,454.66780460253557,571.247453956577,476.1523203036397,
T7,645.8284194361261,662.7240734471175,673.0812411506998,689.3008264162444,499.34558206751126,
Pz,492.2026503528156,135.58363015262978,259.0410054469351,377.6220616654126,223.0937316038102,
T8,1074.2534881427223,462.1829434316169,281.4819676187767,414.5500061563329,470.2361011892963,
AF4,230.8136738547348,327.69763516916373,416.8961820361438,265.4590786392799,242.12408032420893,
AF3,341.6515528669877,659.6269807863184,454.66780460253557,571.247453956577,476.1523203036397,
T7,645.8284194361261,662.7240734471175,673.0812411506998,689.3008264162444,499.34558206751126,
Pz,492.2026503528156,135.58363015262978,259.0410054469351,377.6220616654126,223.0937316038102,
T8,1074.2534881427223,462.1829434316169,281.4819676187767,414.5500061563329,470.2361011892963,
AF4,230.8136738547348,327.69763516916373,416.8961820361438,265.4590786392799,242.12408032420893,
AF3,341.6515528669877,659.6269807863184,454.66780460253557,571.247453956577,476.1523203036397,
T7,645.8284194361261,662.7240734471175,673.0812411506998,689.3008264162444,499.34558206751126,
Pz,492.2026503528156,135.58363015262978,259.0410054469351,377.6220616654126,223.0937316038102,
T8,1074.2534881427223,462.1829434316169,281.4819676187767,414.5500061563329,470.2361011892963,
AF4,230.8136738547348,327.69763516916373,416.8961820361438,265.4590786392799,242.12408032420893,
AF3,324.3599555604678,604.2981349189579,868.6838409745669,493.01025074557174,416.0733290131834,
T7,447.61872630620684,742.9266584723837,1368.896293948025,878.3689540883324,818.1371816878939,
Pz,218.834311777051,217.15142342084278,510.7530046223054,433.2049074867419,279.5327544552337,
T8,426.5040448553882,532.3228916136318,529.1300868563973,374.8423079931616,614.0159596014532,
AF4,320.2592367973479,177.31962749529416,694.3120957575923,505.3300296520906,344.58993111078627,
AF3,324.3599555604678,604.2981349189579,868.6838409745669,493.01025074557174,416.0733290131834,
T7,447.61872630620684,742.9266584723837,1368.896293948025,878.3689540883324,818.1371816878939,
Pz,218.834311777051,217.15142342084278,510.7530046223054,433.2049074867419,279.5327544552337,
T8,426.5040448553882,532.3228916136318,529.1300868563973,374.8423079931616,614.0159596014532,
AF4,320.2592367973479,177.31962749529416,694.3120957575923,505.3300296520906,344.58993111078627,
AF3,324.3599555604678,604.2981349189579,868.6838409745669,493.01025074557174,416.0733290131834,
T7,447.61872630620684,742.9266584723837,1368.896293948025,878.3689540883324,818.1371816878939,
Pz,218.834311777051,217.15142342084278,510.7530046223054,433.2049074867419,279.5327544552337,
T8,426.5040448553882,532.3228916136318,529.1300868563973,374.8423079931616,614.0159596014532,
AF4,320.2592367973479,177.31962749529416,694.3120957575923,505.3300296520906,344.58993111078627,
AF3,324.3599555604678,604.2981349189579,868.6838409745669,493.01025074557174,416.0733290131834,
T7,447.61872630620684,742.9266584723837,1368.896293948025,878.3689540883324,818.1371816878939,
Pz,218.834311777051,217.15142342084278,510.7530046223054,433.2049074867419,279.5327544552337,
T8,426.5040448553882,532.3228916136318,529.1300868563973,374.8423079931616,614.0159596014532,
AF4,320.2592367973479,177.31962749529416,694.3120957575923,505.3300296520906,344.58993111078627,
AF3,324.3599555604678,604.2981349189579,868.6838409745669,493.01025074557174,416.0733290131834,
T7,447.61872630620684,742.9266584723837,1368.896293948025,878.3689540883324,818.1371816878939,
Pz,218.834311777051,217.15142342084278,510.7530046223054,433.2049074867419,279.5327544552337,
T8,426.5040448553882,532.3228916136318,529.1300868563973,374.8423079931616,614.0159596014532,
AF4,320.2592367973479,177.31962749529416,694.3120957575923,505.3300296520906,344.58993111078627,
AF3,324.3599555604678,604.2981349189579,868.6838409745669,493.01025074557174,416.0733290131834,
T7,447.61872630620684,742.9266584723837,1368.896293948025,878.3689540883324,818.1371816878939,
Pz,218.834311777051,217.15142342084278,510.7530046223054,433.2049074867419,279.5327544552337,
T8,426.5040448553882,532.3228916136318,529.1300868563973,374.8423079931616,614.0159596014532,
AF4,320.2592367973479,177.31962749529416,694.3120957575923,505.3300296520906,344.58993111078627,
AF3,324.3599555604678,604.2981349189579,868.6838409745669,493.01025074557174,416.0733290131834,
T7,447.61872630620684,742.9266584723837,1368.896293948025,878.3689540883324,818.1371816878939,
Pz,218.834311777051,217.15142342084278,510.7530046223054,433.2049074867419,279.5327544552337,
T8,426.5040448553882,532.3228916136318,529.1300868563973,374.8423079931616,614.0159596014532,
AF4,320.2592367973479,177.31962749529416,694.3120957575923,505.3300296520906,344.58993111078627,
AF3,324.3599555604678,604.2981349189579,868.6838409745669,493.01025074557174,416.0733290131834,
T7,447.61872630620684,742.9266584723837,1368.896293948025,878.3689540883324,818.1371816878939,
Pz,218.834311777051,217.15142342084278,510.7530046223054,433.2049074867419,279.5327544552337,
T8,426.5040448553882,532.3228916136318,529.1300868563973,374.8423079931616,614.0159596014532,
AF4,320.2592367973479,177.31962749529416,694.3120957575923,505.3300296520906,344.58993111078627,
AF3,324.3599555604678,604.2981349189579,868.6838409745669,493.01025074557174,416.0733290131834,
T7,447.61872630620684,742.9266584723837,1368.896293948025,878.3689540883324,818.1371816878939,
Pz,218.834311777051,217.15142342084278,510.7530046223054,433.2049074867419,279.5327544552337,
T8,426.5040448553882,532.3228916136318,529.1300868563973,374.8423079931616,614.0159596014532,
AF4,320.2592367973479,177.31962749529416,694.3120957575923,505.3300296520906,344.58993111078627,
AF3,324.3599555604678,604.2981349189579,868.6838409745669,493.01025074557174,416.0733290131834,
T7,447.61872630620684,742.9266584723837,1368.896293948025,878.3689540883324,818.1371816878939,
Pz,218.834311777051,217.15142342084278,510.7530046223054,433.2049074867419,279.5327544552337,
T8,426.5040448553882,532.3228916136318,529.1300868563973,374.8423079931616,614.0159596014532,
AF4,320.2592367973479,177.31962749529416,694.3120957575923,505.3300296520906,344.58993111078627,
AF3,324.3599555604678,604.2981349189579,868.6838409745669,493.01025074557174,416.0733290131834,
T7,447.61872630620684,742.9266584723837,1368.896293948025,878.3689540883324,818.1371816878939,
Pz,218.834311777051,217.15142342084278,510.7530046223054,433.2049074867419,279.5327544552337,
T8,426.5040448553882,532.3228916136318,529.1300868563973,374.8423079931616,614.0159596014532,
AF4,320.2592367973479,177.31962749529416,694.3120957575923,505.3300296520906,344.58993111078627,
AF3,324.3599555604678,604.2981349189579,868.6838409745669,493.01025074557174,416.0733290131834,
T7,447.61872630620684,742.9266584723837,1368.896293948025,878.3689540883324,818.1371816878939,
Pz,218.834311777051,217.15142342084278,510.7530046223054,433.2049074867419,279.5327544552337,
T8,426.5040448553882,532.3228916136318,529.1300868563973,374.8423079931616,614.0159596014532,
AF4,320.2592367973479,177.31962749529416,694.3120957575923,505.3300296520906,344.58993111078627,
AF3,324.3599555604678,604.2981349189579,868.6838409745669,493.01025074557174,416.0733290131834,
T7,447.61872630620684,742.9266584723837,1368.896293948025,878.3689540883324,818.1371816878939,
Pz,218.834311777051,217.15142342084278,510.7530046223054,433.2049074867419,279.5327544552337,
T8,426.5040448553882,532.3228916136318,529.1300868563973,374.8423079931616,614.0159596014532,
AF4,320.2592367973479,177.31962749529416,694.3120957575923,505.3300296520906,344.58993111078627,
AF3,324.3599555604678,604.2981349189579,868.6838409745669,493.01025074557174,416.0733290131834,
T7,447.61872630620684,742.9266584723837,1368.896293948025,878.3689540883324,818.1371816878939,
Pz,218.834311777051,217.15142342084278,510.7530046223054,433.2049074867419,279.5327544552337,
T8,426.5040448553882,532.3228916136318,529.1300868563973,374.8423079931616,614.0159596014532,
AF4,320.2592367973479,177.31962749529416,694.3120957575923,505.3300296520906,344.58993111078627,
AF3,324.3599555604678,604.2981349189579,868.6838409745669,493.01025074557174,416.0733290131834,
T7,447.61872630620684,742.9266584723837,1368.896293948025,878.3689540883324,818.1371816878939,
Pz,218.834311777051,217.15142342084278,510.7530046223054,433.2049074867419,279.5327544552337,
T8,426.5040448553882,532.3228916136318,529.1300868563973,374.8423079931616,614.0159596014532,
AF4,320.2592367973479,177.31962749529416,694.3120957575923,505.3300296520906,344.58993111078627,
AF3,324.3599555604678,604.2981349189579,868.6838409745669,493.01025074557174,416.0733290131834,
T7,447.61872630620684,742.9266584723837,1368.896293948025,878.3689540883324,818.1371816878939,
Pz,218.834311777051,217.15142342084278,510.7530046223054,433.2049074867419,279.5327544552337,
T8,426.5040448553882,532.3228916136318,529.1300868563973,374.8423079931616,614.0159596014532,
AF4,320.2592367973479,177.31962749529416,694.3120957575923,505.3300296520906,344.58993111078627,
AF3,324.3599555604678,604.2981349189579,868.6838409745669,493.01025074557174,416.0733290131834,
T7,447.61872630620684,742.9266584723837,1368.896293948025,878.3689540883324,818.1371816878939,
Pz,218.834311777051,217.15142342084278,510.7530046223054,433.2049074867419,279.5327544552337,
T8,426.5040448553882,532.3228916136318,529.1300868563973,374.8423079931616,614.0159596014532,
AF4,320.2592367973479,177.31962749529416,694.3120957575923,505.3300296520906,344.58993111078627,
AF3,324.3599555604678,604.2981349189579,868.6838409745669,493.01025074557174,416.0733290131834,
T7,447.61872630620684,742.9266584723837,1368.896293948025,878.3689540883324,818.1371816878939,
Pz,218.834311777051,217.15142342084278,510.7530046223054,433.2049074867419,279.5327544552337,
T8,426.5040448553882,532.3228916136318,529.1300868563973,374.8423079931616,614.0159596014532,
AF4,320.2592367973479,177.31962749529416,694.3120957575923,505.3300296520906,344.58993111078627,
AF3,324.3599555604678,604.2981349189579,868.6838409745669,493.01025074557174,416.0733290131834,
T7,447.61872630620684,742.9266584723837,1368.896293948025,878.3689540883324,818.1371816878939,
Pz,218.834311777051,217.15142342084278,510.7530046223054,433.2049074867419,279.5327544552337,
T8,426.5040448553882,532.3228916136318,529.1300868563973,374.8423079931616,614.0159596014532,
AF4,320.2592367973479,177.31962749529416,694.3120957575923,505.3300296520906,344.58993111078627,
AF3,324.3599555604678,604.2981349189579,868.6838409745669,493.01025074557174,416.0733290131834,
T7,447.61872630620684,742.9266584723837,1368.896293948025,878.3689540883324,818.1371816878939,
Pz,218.834311777051,217.15142342084278,510.7530046223054,433.2049074867419,279.5327544552337,
T8,426.5040448553882,532.3228916136318,529.1300868563973,374.8423079931616,614.0159596014532,
AF4,320.2592367973479,177.31962749529416,694.3120957575923,505.3300296520906,344.58993111078627,
AF3,324.3599555604678,604.2981349189579,868.6838409745669,493.01025074557174,416.0733290131834,
T7,447.61872630620684,742.9266584723837,1368.896293948025,878.3689540883324,818.1371816878939,
Pz,218.834311777051,217.15142342084278,510.7530046223054,433.2049074867419,279.5327544552337,
T8,426.5040448553882,532.3228916136318,529.1300868563973,374.8423079931616,614.0159596014532,
AF4,320.2592367973479,177.31962749529416,694.3120957575923,505.3300296520906,344.58993111078627,
AF3,324.3599555604678,604.2981349189579,868.6838409745669,493.01025074557174,416.0733290131834,
T7,447.61872630620684,742.9266584723837,1368.896293948025,878.3689540883324,818.1371816878939,
Pz,218.834311777051,217.15142342084278,510.7530046223054,433.2049074867419,279.5327544552337,
T8,426.5040448553882,532.3228916136318,529.1300868563973,374.8423079931616,614.0159596014532,
AF4,320.2592367973479,177.31962749529416,694.3120957575923,505.3300296520906,344.58993111078627,
AF3,324.3599555604678,604.2981349189579,868.6838409745669,493.01025074557174,416.0733290131834,
T7,447.61872630620684,742.9266584723837,1368.896293948025,878.3689540883324,818.1371816878939,
Pz,218.834311777051,217.15142342084278,510.7530046223054,433.2049074867419,279.5327544552337,
T8,426.5040448553882,532.3228916136318,529.1300868563973,374.8423079931616,614.0159596014532,
AF4,320.2592367973479,177.31962749529416,694.3120957575923,505.3300296520906,344.58993111078627,
AF3,324.3599555604678,604.2981349189579,868.6838409745669,493.01025074557174,416.0733290131834,
T7,447.61872630620684,742.9266584723837,1368.896293948025,878.3689540883324,818.1371816878939,
Pz,218.834311777051,217.15142342084278,510.7530046223054,433.2049074867419,279.5327544552337,
T8,426.5040448553882,532.3228916136318,529.1300868563973,374.8423079931616,614.0159596014532,
AF4,320.2592367973479,177.31962749529416,694.3120957575923,505.3300296520906,344.58993111078627,
AF3,324.3599555604678,604.2981349189579,868.6838409745669,493.01025074557174,416.0733290131834,
T7,447.61872630620684,742.9266584723837,1368.896293948025,878.3689540883324,818.1371816878939,
Pz,218.834311777051,217.15142342084278,510.7530046223054,433.2049074867419,279.5327544552337,
T8,426.5040448553882,532.3228916136318,529.1300868563973,374.8423079931616,614.0159596014532,
AF4,320.2592367973479,177.31962749529416,694.3120957575923,505.3300296520906,344.58993111078627,
AF3,324.3599555604678,604.2981349189579,868.6838409745669,493.01025074557174,416.0733290131834,
T7,447.61872630620684,742.9266584723837,1368.896293948025,878.3689540883324,818.1371816878939,
Pz,218.834311777051,217.15142342084278,510.7530046223054,433.2049074867419,279.5327544552337,
T8,426.5040448553882,532.3228916136318,529.1300868563973,374.8423079931616,614.0159596014532,
AF4,320.2592367973479,177.31962749529416,694.3120957575923,505.3300296520906,344.58993111078627,
AF3,324.3599555604678,604.2981349189579,868.6838409745669,493.01025074557174,416.0733290131834,
T7,447.61872630620684,742.9266584723837,1368.896293948025,878.3689540883324,818.1371816878939,
Pz,218.834311777051,217.15142342084278,510.7530046223054,433.2049074867419,279.5327544552337,
T8,426.5040448553882,532.3228916136318,529.1300868563973,374.8423079931616,614.0159596014532,
AF4,320.2592367973479,177.31962749529416,694.3120957575923,505.3300296520906,344.58993111078627,
AF3,324.3599555604678,604.2981349189579,868.6838409745669,493.01025074557174,416.0733290131834,
T7,447.61872630620684,742.9266584723837,1368.896293948025,878.3689540883324,818.1371816878939,
Pz,218.834311777051,217.15142342084278,510.7530046223054,433.2049074867419,279.5327544552337,
T8,426.5040448553882,532.3228916136318,529.1300868563973,374.8423079931616,614.0159596014532,
AF4,320.2592367973479,177.31962749529416,694.3120957575923,505.3300296520906,344.58993111078627,
AF3,324.3599555604678,604.2981349189579,868.6838409745669,493.01025074557174,416.0733290131834,
T7,447.61872630620684,742.9266584723837,1368.896293948025,878.3689540883324,818.1371816878939,
