Channel , Theta ,Alpha ,Low beta ,High beta , Gamma 
AF3,58.53025626887604,14.298247279327066,6.39898573106608,10.84544019797842,43.381562649869956,
T7,24.27003767512798,47.566865615825726,54.24532649595656,78.21463708928745,71.70696933150765,
Pz,33.08869882480865,67.42731024846492,122.5804715439741,184.3496752773656,284.8909913366151,
T8,40.67141110815211,84.53117701101013,63.640852316710934,231.41349292592133,195.2009981594145,
AF4,96.88853347680434,14.569180755908945,2.0161354624479184,14.506176556325407,26.916214502422786,
AF3,58.53025626887604,14.298247279327066,6.39898573106608,10.84544019797842,43.381562649869956,
T7,24.27003767512798,47.566865615825726,54.24532649595656,78.21463708928745,71.70696933150765,
Pz,33.08869882480865,67.42731024846492,122.5804715439741,184.3496752773656,284.8909913366151,
T8,40.67141110815211,84.53117701101013,63.640852316710934,231.41349292592133,195.2009981594145,
AF4,96.88853347680434,14.569180755908945,2.0161354624479184,14.506176556325407,26.916214502422786,
AF3,58.53025626887604,14.298247279327066,6.39898573106608,10.84544019797842,43.381562649869956,
T7,24.27003767512798,47.566865615825726,54.24532649595656,78.21463708928745,71.70696933150765,
Pz,33.08869882480865,67.42731024846492,122.5804715439741,184.3496752773656,284.8909913366151,
T8,40.67141110815211,84.53117701101013,63.640852316710934,231.41349292592133,195.2009981594145,
AF4,96.88853347680434,14.569180755908945,2.0161354624479184,14.506176556325407,26.916214502422786,
AF3,58.53025626887604,14.298247279327066,6.39898573106608,10.84544019797842,43.381562649869956,
T7,24.27003767512798,47.566865615825726,54.24532649595656,78.21463708928745,71.70696933150765,
Pz,33.08869882480865,67.42731024846492,122.5804715439741,184.3496752773656,284.8909913366151,
T8,40.67141110815211,84.53117701101013,63.640852316710934,231.41349292592133,195.2009981594145,
AF4,96.88853347680434,14.569180755908945,2.0161354624479184,14.506176556325407,26.916214502422786,
AF3,58.53025626887604,14.298247279327066,6.39898573106608,10.84544019797842,43.381562649869956,
T7,24.27003767512798,47.566865615825726,54.24532649595656,78.21463708928745,71.70696933150765,
Pz,33.08869882480865,67.42731024846492,122.5804715439741,184.3496752773656,284.8909913366151,
T8,40.67141110815211,84.53117701101013,63.640852316710934,231.41349292592133,195.2009981594145,
AF4,96.88853347680434,14.569180755908945,2.0161354624479184,14.506176556325407,26.916214502422786,
AF3,58.53025626887604,14.298247279327066,6.39898573106608,10.84544019797842,43.381562649869956,
T7,24.27003767512798,47.566865615825726,54.24532649595656,78.21463708928745,71.70696933150765,
Pz,33.08869882480865,67.42731024846492,122.5804715439741,184.3496752773656,284.8909913366151,
T8,40.67141110815211,84.53117701101013,63.640852316710934,231.41349292592133,195.2009981594145,
AF4,96.88853347680434,14.569180755908945,2.0161354624479184,14.506176556325407,26.916214502422786,
AF3,58.53025626887604,14.298247279327066,6.39898573106608,10.84544019797842,43.381562649869956,
T7,24.27003767512798,47.566865615825726,54.24532649595656,78.21463708928745,71.70696933150765,
Pz,33.08869882480865,67.42731024846492,122.5804715439741,184.3496752773656,284.8909913366151,
T8,40.67141110815211,84.53117701101013,63.640852316710934,231.41349292592133,195.2009981594145,
AF4,96.88853347680434,14.569180755908945,2.0161354624479184,14.506176556325407,26.916214502422786,
AF3,58.53025626887604,14.298247279327066,6.39898573106608,10.84544019797842,43.381562649869956,
T7,24.27003767512798,47.566865615825726,54.24532649595656,78.21463708928745,71.70696933150765,
Pz,33.08869882480865,67.42731024846492,122.5804715439741,184.3496752773656,284.8909913366151,
T8,40.67141110815211,84.53117701101013,63.640852316710934,231.41349292592133,195.2009981594145,
AF4,96.88853347680434,14.569180755908945,2.0161354624479184,14.506176556325407,26.916214502422786,
AF3,58.53025626887604,14.298247279327066,6.39898573106608,10.84544019797842,43.381562649869956,
T7,24.27003767512798,47.566865615825726,54.24532649595656,78.21463708928745,71.70696933150765,
Pz,33.08869882480865,67.42731024846492,122.5804715439741,184.3496752773656,284.8909913366151,
T8,40.67141110815211,84.53117701101013,63.640852316710934,231.41349292592133,195.2009981594145,
AF4,96.88853347680434,14.569180755908945,2.0161354624479184,14.506176556325407,26.916214502422786,
AF3,58.53025626887604,14.298247279327066,6.39898573106608,10.84544019797842,43.381562649869956,
T7,24.27003767512798,47.566865615825726,54.24532649595656,78.21463708928745,71.70696933150765,
Pz,33.08869882480865,67.42731024846492,122.5804715439741,184.3496752773656,284.8909913366151,
T8,40.67141110815211,84.53117701101013,63.640852316710934,231.41349292592133,195.2009981594145,
AF4,96.88853347680434,14.569180755908945,2.0161354624479184,14.506176556325407,26.916214502422786,
AF3,58.53025626887604,14.298247279327066,6.39898573106608,10.84544019797842,43.381562649869956,
T7,24.27003767512798,47.566865615825726,54.24532649595656,78.21463708928745,71.70696933150765,
Pz,33.08869882480865,67.42731024846492,122.5804715439741,184.3496752773656,284.8909913366151,
T8,40.67141110815211,84.53117701101013,63.640852316710934,231.41349292592133,195.2009981594145,
AF4,96.88853347680434,14.569180755908945,2.0161354624479184,14.506176556325407,26.916214502422786,
AF3,58.53025626887604,14.298247279327066,6.39898573106608,10.84544019797842,43.381562649869956,
T7,24.27003767512798,47.566865615825726,54.24532649595656,78.21463708928745,71.70696933150765,
Pz,33.08869882480865,67.42731024846492,122.5804715439741,184.3496752773656,284.8909913366151,
T8,40.67141110815211,84.53117701101013,63.640852316710934,231.41349292592133,195.2009981594145,
AF4,96.88853347680434,14.569180755908945,2.0161354624479184,14.506176556325407,26.916214502422786,
AF3,58.53025626887604,14.298247279327066,6.39898573106608,10.84544019797842,43.381562649869956,
T7,24.27003767512798,47.566865615825726,54.24532649595656,78.21463708928745,71.70696933150765,
Pz,33.08869882480865,67.42731024846492,122.5804715439741,184.3496752773656,284.8909913366151,
T8,40.67141110815211,84.53117701101013,63.640852316710934,231.41349292592133,195.2009981594145,
AF4,96.88853347680434,14.569180755908945,2.0161354624479184,14.506176556325407,26.916214502422786,
AF3,58.53025626887604,14.298247279327066,6.39898573106608,10.84544019797842,43.381562649869956,
T7,24.27003767512798,47.566865615825726,54.24532649595656,78.21463708928745,71.70696933150765,
Pz,33.08869882480865,67.42731024846492,122.5804715439741,184.3496752773656,284.8909913366151,
T8,40.67141110815211,84.53117701101013,63.640852316710934,231.41349292592133,195.2009981594145,
AF4,96.88853347680434,14.569180755908945,2.0161354624479184,14.506176556325407,26.916214502422786,
AF3,58.53025626887604,14.298247279327066,6.39898573106608,10.84544019797842,43.381562649869956,
T7,24.27003767512798,47.566865615825726,54.24532649595656,78.21463708928745,71.70696933150765,
Pz,33.08869882480865,67.42731024846492,122.5804715439741,184.3496752773656,284.8909913366151,
T8,40.67141110815211,84.53117701101013,63.640852316710934,231.41349292592133,195.2009981594145,
AF4,96.88853347680434,14.569180755908945,2.0161354624479184,14.506176556325407,26.916214502422786,
AF3,58.53025626887604,14.298247279327066,6.39898573106608,10.84544019797842,43.381562649869956,
T7,24.27003767512798,47.566865615825726,54.24532649595656,78.21463708928745,71.70696933150765,
Pz,33.08869882480865,67.42731024846492,122.5804715439741,184.3496752773656,284.8909913366151,
T8,40.67141110815211,84.53117701101013,63.640852316710934,231.41349292592133,195.2009981594145,
AF4,96.88853347680434,14.569180755908945,2.0161354624479184,14.506176556325407,26.916214502422786,
AF3,58.53025626887604,14.298247279327066,6.39898573106608,10.84544019797842,43.381562649869956,
T7,24.27003767512798,47.566865615825726,54.24532649595656,78.21463708928745,71.70696933150765,
Pz,33.08869882480865,67.42731024846492,122.5804715439741,184.3496752773656,284.8909913366151,
T8,40.67141110815211,84.53117701101013,63.640852316710934,231.41349292592133,195.2009981594145,
AF4,96.88853347680434,14.569180755908945,2.0161354624479184,14.506176556325407,26.916214502422786,
AF3,58.53025626887604,14.298247279327066,6.39898573106608,10.84544019797842,43.381562649869956,
T7,24.27003767512798,47.566865615825726,54.24532649595656,78.21463708928745,71.70696933150765,
Pz,33.08869882480865,67.42731024846492,122.5804715439741,184.3496752773656,284.8909913366151,
T8,40.67141110815211,84.53117701101013,63.640852316710934,231.41349292592133,195.2009981594145,
AF4,96.88853347680434,14.569180755908945,2.0161354624479184,14.506176556325407,26.916214502422786,
AF3,58.53025626887604,14.298247279327066,6.39898573106608,10.84544019797842,43.381562649869956,
T7,24.27003767512798,47.566865615825726,54.24532649595656,78.21463708928745,71.70696933150765,
Pz,33.08869882480865,67.42731024846492,122.5804715439741,184.3496752773656,284.8909913366151,
T8,40.67141110815211,84.53117701101013,63.640852316710934,231.41349292592133,195.2009981594145,
AF4,96.88853347680434,14.569180755908945,2.0161354624479184,14.506176556325407,26.916214502422786,
AF3,58.53025626887604,14.298247279327066,6.39898573106608,10.84544019797842,43.381562649869956,
T7,24.27003767512798,47.566865615825726,54.24532649595656,78.21463708928745,71.70696933150765,
Pz,33.08869882480865,67.42731024846492,122.5804715439741,184.3496752773656,284.8909913366151,
T8,40.67141110815211,84.53117701101013,63.640852316710934,231.41349292592133,195.2009981594145,
AF4,96.88853347680434,14.569180755908945,2.0161354624479184,14.506176556325407,26.916214502422786,
AF3,58.53025626887604,14.298247279327066,6.39898573106608,10.84544019797842,43.381562649869956,
T7,24.27003767512798,47.566865615825726,54.24532649595656,78.21463708928745,71.70696933150765,
Pz,33.08869882480865,67.42731024846492,122.5804715439741,184.3496752773656,284.8909913366151,
T8,40.67141110815211,84.53117701101013,63.640852316710934,231.41349292592133,195.2009981594145,
AF4,96.88853347680434,14.569180755908945,2.0161354624479184,14.506176556325407,26.916214502422786,
AF3,58.53025626887604,14.298247279327066,6.39898573106608,10.84544019797842,43.381562649869956,
T7,24.27003767512798,47.566865615825726,54.24532649595656,78.21463708928745,71.70696933150765,
Pz,33.08869882480865,67.42731024846492,122.5804715439741,184.3496752773656,284.8909913366151,
T8,40.67141110815211,84.53117701101013,63.640852316710934,231.41349292592133,195.2009981594145,
AF4,96.88853347680434,14.569180755908945,2.0161354624479184,14.506176556325407,26.916214502422786,
AF3,58.53025626887604,14.298247279327066,6.39898573106608,10.84544019797842,43.381562649869956,
T7,24.27003767512798,47.566865615825726,54.24532649595656,78.21463708928745,71.70696933150765,
Pz,33.08869882480865,67.42731024846492,122.5804715439741,184.3496752773656,284.8909913366151,
T8,40.67141110815211,84.53117701101013,63.640852316710934,231.41349292592133,195.2009981594145,
AF4,96.88853347680434,14.569180755908945,2.0161354624479184,14.506176556325407,26.916214502422786,
AF3,58.53025626887604,14.298247279327066,6.39898573106608,10.84544019797842,43.381562649869956,
T7,24.27003767512798,47.566865615825726,54.24532649595656,78.21463708928745,71.70696933150765,
Pz,33.08869882480865,67.42731024846492,122.5804715439741,184.3496752773656,284.8909913366151,
T8,40.67141110815211,84.53117701101013,63.640852316710934,231.41349292592133,195.2009981594145,
AF4,96.88853347680434,14.569180755908945,2.0161354624479184,14.506176556325407,26.916214502422786,
AF3,58.53025626887604,14.298247279327066,6.39898573106608,10.84544019797842,43.381562649869956,
T7,24.27003767512798,47.566865615825726,54.24532649595656,78.21463708928745,71.70696933150765,
Pz,33.08869882480865,67.42731024846492,122.5804715439741,184.3496752773656,284.8909913366151,
T8,40.67141110815211,84.53117701101013,63.640852316710934,231.41349292592133,195.2009981594145,
AF4,96.88853347680434,14.569180755908945,2.0161354624479184,14.506176556325407,26.916214502422786,
AF3,58.53025626887604,14.298247279327066,6.39898573106608,10.84544019797842,43.381562649869956,
T7,24.27003767512798,47.566865615825726,54.24532649595656,78.21463708928745,71.70696933150765,
Pz,33.08869882480865,67.42731024846492,122.5804715439741,184.3496752773656,284.8909913366151,
T8,40.67141110815211,84.53117701101013,63.640852316710934,231.41349292592133,195.2009981594145,
AF4,96.88853347680434,14.569180755908945,2.0161354624479184,14.506176556325407,26.916214502422786,
AF3,58.53025626887604,14.298247279327066,6.39898573106608,10.84544019797842,43.381562649869956,
T7,24.27003767512798,47.566865615825726,54.24532649595656,78.21463708928745,71.70696933150765,
Pz,33.08869882480865,67.42731024846492,122.5804715439741,184.3496752773656,284.8909913366151,
T8,40.67141110815211,84.53117701101013,63.640852316710934,231.41349292592133,195.2009981594145,
AF4,96.88853347680434,14.569180755908945,2.0161354624479184,14.506176556325407,26.916214502422786,
AF3,58.53025626887604,14.298247279327066,6.39898573106608,10.84544019797842,43.381562649869956,
T7,24.27003767512798,47.566865615825726,54.24532649595656,78.21463708928745,71.70696933150765,
Pz,33.08869882480865,67.42731024846492,122.5804715439741,184.3496752773656,284.8909913366151,
T8,40.67141110815211,84.53117701101013,63.640852316710934,231.41349292592133,195.2009981594145,
AF4,96.88853347680434,14.569180755908945,2.0161354624479184,14.506176556325407,26.916214502422786,
AF3,58.53025626887604,14.298247279327066,6.39898573106608,10.84544019797842,43.381562649869956,
T7,24.27003767512798,47.566865615825726,54.24532649595656,78.21463708928745,71.70696933150765,
Pz,33.08869882480865,67.42731024846492,122.5804715439741,184.3496752773656,284.8909913366151,
T8,40.67141110815211,84.53117701101013,63.640852316710934,231.41349292592133,195.2009981594145,
AF4,96.88853347680434,14.569180755908945,2.0161354624479184,14.506176556325407,26.916214502422786,
AF3,58.53025626887604,14.298247279327066,6.39898573106608,10.84544019797842,43.381562649869956,
T7,24.27003767512798,47.566865615825726,54.24532649595656,78.21463708928745,71.70696933150765,
Pz,33.08869882480865,67.42731024846492,122.5804715439741,184.3496752773656,284.8909913366151,
T8,40.67141110815211,84.53117701101013,63.640852316710934,231.41349292592133,195.2009981594145,
AF4,96.88853347680434,14.569180755908945,2.0161354624479184,14.506176556325407,26.916214502422786,
AF3,58.53025626887604,14.298247279327066,6.39898573106608,10.84544019797842,43.381562649869956,
T7,24.27003767512798,47.566865615825726,54.24532649595656,78.21463708928745,71.70696933150765,
Pz,33.08869882480865,67.42731024846492,122.5804715439741,184.3496752773656,284.8909913366151,
T8,40.67141110815211,84.53117701101013,63.640852316710934,231.41349292592133,195.2009981594145,
AF4,96.88853347680434,14.569180755908945,2.0161354624479184,14.506176556325407,26.916214502422786,
AF3,58.53025626887604,14.298247279327066,6.39898573106608,10.84544019797842,43.381562649869956,
T7,24.27003767512798,47.566865615825726,54.24532649595656,78.21463708928745,71.70696933150765,
Pz,33.08869882480865,67.42731024846492,122.5804715439741,184.3496752773656,284.8909913366151,
T8,40.67141110815211,84.53117701101013,63.640852316710934,231.41349292592133,195.2009981594145,
AF4,96.88853347680434,14.569180755908945,2.0161354624479184,14.506176556325407,26.916214502422786,
AF3,58.53025626887604,14.298247279327066,6.39898573106608,10.84544019797842,43.381562649869956,
T7,24.27003767512798,47.566865615825726,54.24532649595656,78.21463708928745,71.70696933150765,
Pz,33.08869882480865,67.42731024846492,122.5804715439741,184.3496752773656,284.8909913366151,
T8,40.67141110815211,84.53117701101013,63.640852316710934,231.41349292592133,195.2009981594145,
AF4,96.88853347680434,14.569180755908945,2.0161354624479184,14.506176556325407,26.916214502422786,
AF3,58.53025626887604,14.298247279327066,6.39898573106608,10.84544019797842,43.381562649869956,
T7,24.27003767512798,47.566865615825726,54.24532649595656,78.21463708928745,71.70696933150765,
Pz,33.08869882480865,67.42731024846492,122.5804715439741,184.3496752773656,284.8909913366151,
T8,40.67141110815211,84.53117701101013,63.640852316710934,231.41349292592133,195.2009981594145,
AF4,96.88853347680434,14.569180755908945,2.0161354624479184,14.506176556325407,26.916214502422786,
AF3,58.53025626887604,14.298247279327066,6.39898573106608,10.84544019797842,43.381562649869956,
T7,24.27003767512798,47.566865615825726,54.24532649595656,78.21463708928745,71.70696933150765,
Pz,33.08869882480865,67.42731024846492,122.5804715439741,184.3496752773656,284.8909913366151,
T8,40.67141110815211,84.53117701101013,63.640852316710934,231.41349292592133,195.2009981594145,
AF4,96.88853347680434,14.569180755908945,2.0161354624479184,14.506176556325407,26.916214502422786,
AF3,58.53025626887604,14.298247279327066,6.39898573106608,10.84544019797842,43.381562649869956,
T7,24.27003767512798,47.566865615825726,54.24532649595656,78.21463708928745,71.70696933150765,
Pz,33.08869882480865,67.42731024846492,122.5804715439741,184.3496752773656,284.8909913366151,
T8,40.67141110815211,84.53117701101013,63.640852316710934,231.41349292592133,195.2009981594145,
AF4,96.88853347680434,14.569180755908945,2.0161354624479184,14.506176556325407,26.916214502422786,
AF3,58.53025626887604,14.298247279327066,6.39898573106608,10.84544019797842,43.381562649869956,
T7,24.27003767512798,47.566865615825726,54.24532649595656,78.21463708928745,71.70696933150765,
Pz,33.08869882480865,67.42731024846492,122.5804715439741,184.3496752773656,284.8909913366151,
T8,40.67141110815211,84.53117701101013,63.640852316710934,231.41349292592133,195.2009981594145,
AF4,96.88853347680434,14.569180755908945,2.0161354624479184,14.506176556325407,26.916214502422786,
AF3,58.53025626887604,14.298247279327066,6.39898573106608,10.84544019797842,43.381562649869956,
T7,24.27003767512798,47.566865615825726,54.24532649595656,78.21463708928745,71.70696933150765,
Pz,33.08869882480865,67.42731024846492,122.5804715439741,184.3496752773656,284.8909913366151,
T8,40.67141110815211,84.53117701101013,63.640852316710934,231.41349292592133,195.2009981594145,
AF4,96.88853347680434,14.569180755908945,2.0161354624479184,14.506176556325407,26.916214502422786,
AF3,58.53025626887604,14.298247279327066,6.39898573106608,10.84544019797842,43.381562649869956,
T7,24.27003767512798,47.566865615825726,54.24532649595656,78.21463708928745,71.70696933150765,
Pz,33.08869882480865,67.42731024846492,122.5804715439741,184.3496752773656,284.8909913366151,
T8,40.67141110815211,84.53117701101013,63.640852316710934,231.41349292592133,195.2009981594145,
AF4,96.88853347680434,14.569180755908945,2.0161354624479184,14.506176556325407,26.916214502422786,
AF3,58.53025626887604,14.298247279327066,6.39898573106608,10.84544019797842,43.381562649869956,
T7,24.27003767512798,47.566865615825726,54.24532649595656,78.21463708928745,71.70696933150765,
Pz,33.08869882480865,67.42731024846492,122.5804715439741,184.3496752773656,284.8909913366151,
T8,40.67141110815211,84.53117701101013,63.640852316710934,231.41349292592133,195.2009981594145,
AF4,96.88853347680434,14.569180755908945,2.0161354624479184,14.506176556325407,26.916214502422786,
AF3,58.53025626887604,14.298247279327066,6.39898573106608,10.84544019797842,43.381562649869956,
T7,24.27003767512798,47.566865615825726,54.24532649595656,78.21463708928745,71.70696933150765,
Pz,33.08869882480865,67.42731024846492,122.5804715439741,184.3496752773656,284.8909913366151,
T8,40.67141110815211,84.53117701101013,63.640852316710934,231.41349292592133,195.2009981594145,
AF4,96.88853347680434,14.569180755908945,2.0161354624479184,14.506176556325407,26.916214502422786,
AF3,58.53025626887604,14.298247279327066,6.39898573106608,10.84544019797842,43.381562649869956,
T7,24.27003767512798,47.566865615825726,54.24532649595656,78.21463708928745,71.70696933150765,
Pz,33.08869882480865,67.42731024846492,122.5804715439741,184.3496752773656,284.8909913366151,
T8,40.67141110815211,84.53117701101013,63.640852316710934,231.41349292592133,195.2009981594145,
AF4,96.88853347680434,14.569180755908945,2.0161354624479184,14.506176556325407,26.916214502422786,
AF3,58.53025626887604,14.298247279327066,6.39898573106608,10.84544019797842,43.381562649869956,
T7,24.27003767512798,47.566865615825726,54.24532649595656,78.21463708928745,71.70696933150765,
Pz,33.08869882480865,67.42731024846492,122.5804715439741,184.3496752773656,284.8909913366151,
T8,40.67141110815211,84.53117701101013,63.640852316710934,231.41349292592133,195.2009981594145,
AF4,96.88853347680434,14.569180755908945,2.0161354624479184,14.506176556325407,26.916214502422786,
AF3,85.26417681263916,35.21344878696861,2.836568429428156,17.227725635462853,27.55678925924241,
T7,20.91135607232992,92.64267455526185,18.0583024714837,72.911085483245,111.90236443729088,
Pz,56.58908182772021,43.249528164480594,38.73975281819324,251.12573372622165,252.52047487924608,
T8,13.214764010309615,70.59896341495467,15.387700995151773,206.94962239927972,343.3720836955152,
AF4,97.10117245993807,17.97674279654932,4.157448220270992,7.810715453155871,32.41811708936397,
AF3,85.26417681263916,35.21344878696861,2.836568429428156,17.227725635462853,27.55678925924241,
T7,20.91135607232992,92.64267455526185,18.0583024714837,72.911085483245,111.90236443729088,
Pz,56.58908182772021,43.249528164480594,38.73975281819324,251.12573372622165,252.52047487924608,
T8,13.214764010309615,70.59896341495467,15.387700995151773,206.94962239927972,343.3720836955152,
AF4,97.10117245993807,17.97674279654932,4.157448220270992,7.810715453155871,32.41811708936397,
AF3,85.26417681263916,35.21344878696861,2.836568429428156,17.227725635462853,27.55678925924241,
T7,20.91135607232992,92.64267455526185,18.0583024714837,72.911085483245,111.90236443729088,
Pz,56.58908182772021,43.249528164480594,38.73975281819324,251.12573372622165,252.52047487924608,
T8,13.214764010309615,70.59896341495467,15.387700995151773,206.94962239927972,343.3720836955152,
AF4,97.10117245993807,17.97674279654932,4.157448220270992,7.810715453155871,32.41811708936397,
AF3,85.26417681263916,35.21344878696861,2.836568429428156,17.227725635462853,27.55678925924241,
T7,20.91135607232992,92.64267455526185,18.0583024714837,72.911085483245,111.90236443729088,
Pz,56.58908182772021,43.249528164480594,38.73975281819324,251.12573372622165,252.52047487924608,
T8,13.214764010309615,70.59896341495467,15.387700995151773,206.94962239927972,343.3720836955152,
AF4,97.10117245993807,17.97674279654932,4.157448220270992,7.810715453155871,32.41811708936397,
AF3,85.26417681263916,35.21344878696861,2.836568429428156,17.227725635462853,27.55678925924241,
T7,20.91135607232992,92.64267455526185,18.0583024714837,72.911085483245,111.90236443729088,
Pz,56.58908182772021,43.249528164480594,38.73975281819324,251.12573372622165,252.52047487924608,
T8,13.214764010309615,70.59896341495467,15.387700995151773,206.94962239927972,343.3720836955152,
AF4,97.10117245993807,17.97674279654932,4.157448220270992,7.810715453155871,32.41811708936397,
AF3,85.26417681263916,35.21344878696861,2.836568429428156,17.227725635462853,27.55678925924241,
T7,20.91135607232992,92.64267455526185,18.0583024714837,72.911085483245,111.90236443729088,
Pz,56.58908182772021,43.249528164480594,38.73975281819324,251.12573372622165,252.52047487924608,
T8,13.214764010309615,70.59896341495467,15.387700995151773,206.94962239927972,343.3720836955152,
AF4,97.10117245993807,17.97674279654932,4.157448220270992,7.810715453155871,32.41811708936397,
AF3,85.26417681263916,35.21344878696861,2.836568429428156,17.227725635462853,27.55678925924241,
T7,20.91135607232992,92.64267455526185,18.0583024714837,72.911085483245,111.90236443729088,
Pz,56.58908182772021,43.249528164480594,38.73975281819324,251.12573372622165,252.52047487924608,
T8,13.214764010309615,70.59896341495467,15.387700995151773,206.94962239927972,343.3720836955152,
AF4,97.10117245993807,17.97674279654932,4.157448220270992,7.810715453155871,32.41811708936397,
AF3,85.26417681263916,35.21344878696861,2.836568429428156,17.227725635462853,27.55678925924241,
T7,20.91135607232992,92.64267455526185,18.0583024714837,72.911085483245,111.90236443729088,
Pz,56.58908182772021,43.249528164480594,38.73975281819324,251.12573372622165,252.52047487924608,
T8,13.214764010309615,70.59896341495467,15.387700995151773,206.94962239927972,343.3720836955152,
AF4,97.10117245993807,17.97674279654932,4.157448220270992,7.810715453155871,32.41811708936397,
AF3,85.26417681263916,35.21344878696861,2.836568429428156,17.227725635462853,27.55678925924241,
T7,20.91135607232992,92.64267455526185,18.0583024714837,72.911085483245,111.90236443729088,
Pz,56.58908182772021,43.249528164480594,38.73975281819324,251.12573372622165,252.52047487924608,
T8,13.214764010309615,70.59896341495467,15.387700995151773,206.94962239927972,343.3720836955152,
AF4,97.10117245993807,17.97674279654932,4.157448220270992,7.810715453155871,32.41811708936397,
AF3,85.26417681263916,35.21344878696861,2.836568429428156,17.227725635462853,27.55678925924241,
T7,20.91135607232992,92.64267455526185,18.0583024714837,72.911085483245,111.90236443729088,
Pz,56.58908182772021,43.249528164480594,38.73975281819324,251.12573372622165,252.52047487924608,
T8,13.214764010309615,70.59896341495467,15.387700995151773,206.94962239927972,343.3720836955152,
AF4,97.10117245993807,17.97674279654932,4.157448220270992,7.810715453155871,32.41811708936397,
AF3,85.26417681263916,35.21344878696861,2.836568429428156,17.227725635462853,27.55678925924241,
T7,20.91135607232992,92.64267455526185,18.0583024714837,72.911085483245,111.90236443729088,
Pz,56.58908182772021,43.249528164480594,38.73975281819324,251.12573372622165,252.52047487924608,
T8,13.214764010309615,70.59896341495467,15.387700995151773,206.94962239927972,343.3720836955152,
AF4,97.10117245993807,17.97674279654932,4.157448220270992,7.810715453155871,32.41811708936397,
AF3,85.26417681263916,35.21344878696861,2.836568429428156,17.227725635462853,27.55678925924241,
T7,20.91135607232992,92.64267455526185,18.0583024714837,72.911085483245,111.90236443729088,
Pz,56.58908182772021,43.249528164480594,38.73975281819324,251.12573372622165,252.52047487924608,
T8,13.214764010309615,70.59896341495467,15.387700995151773,206.94962239927972,343.3720836955152,
AF4,97.10117245993807,17.97674279654932,4.157448220270992,7.810715453155871,32.41811708936397,
AF3,85.26417681263916,35.21344878696861,2.836568429428156,17.227725635462853,27.55678925924241,
T7,20.91135607232992,92.64267455526185,18.0583024714837,72.911085483245,111.90236443729088,
Pz,56.58908182772021,43.249528164480594,38.73975281819324,251.12573372622165,252.52047487924608,
T8,13.214764010309615,70.59896341495467,15.387700995151773,206.94962239927972,343.3720836955152,
AF4,97.10117245993807,17.97674279654932,4.157448220270992,7.810715453155871,32.41811708936397,
AF3,85.26417681263916,35.21344878696861,2.836568429428156,17.227725635462853,27.55678925924241,
T7,20.91135607232992,92.64267455526185,18.0583024714837,72.911085483245,111.90236443729088,
Pz,56.58908182772021,43.249528164480594,38.73975281819324,251.12573372622165,252.52047487924608,
T8,13.214764010309615,70.59896341495467,15.387700995151773,206.94962239927972,343.3720836955152,
AF4,97.10117245993807,17.97674279654932,4.157448220270992,7.810715453155871,32.41811708936397,
AF3,85.26417681263916,35.21344878696861,2.836568429428156,17.227725635462853,27.55678925924241,
T7,20.91135607232992,92.64267455526185,18.0583024714837,72.911085483245,111.90236443729088,
Pz,56.58908182772021,43.249528164480594,38.73975281819324,251.12573372622165,252.52047487924608,
T8,13.214764010309615,70.59896341495467,15.387700995151773,206.94962239927972,343.3720836955152,
AF4,97.10117245993807,17.97674279654932,4.157448220270992,7.810715453155871,32.41811708936397,
AF3,85.26417681263916,35.21344878696861,2.836568429428156,17.227725635462853,27.55678925924241,
T7,20.91135607232992,92.64267455526185,18.0583024714837,72.911085483245,111.90236443729088,
Pz,56.58908182772021,43.249528164480594,38.73975281819324,251.12573372622165,252.52047487924608,
T8,13.214764010309615,70.59896341495467,15.387700995151773,206.94962239927972,343.3720836955152,
AF4,97.10117245993807,17.97674279654932,4.157448220270992,7.810715453155871,32.41811708936397,
AF3,85.26417681263916,35.21344878696861,2.836568429428156,17.227725635462853,27.55678925924241,
T7,20.91135607232992,92.64267455526185,18.0583024714837,72.911085483245,111.90236443729088,
Pz,56.58908182772021,43.249528164480594,38.73975281819324,251.12573372622165,252.52047487924608,
T8,13.214764010309615,70.59896341495467,15.387700995151773,206.94962239927972,343.3720836955152,
AF4,97.10117245993807,17.97674279654932,4.157448220270992,7.810715453155871,32.41811708936397,
AF3,85.26417681263916,35.21344878696861,2.836568429428156,17.227725635462853,27.55678925924241,
T7,20.91135607232992,92.64267455526185,18.0583024714837,72.911085483245,111.90236443729088,
Pz,56.58908182772021,43.249528164480594,38.73975281819324,251.12573372622165,252.52047487924608,
T8,13.214764010309615,70.59896341495467,15.387700995151773,206.94962239927972,343.3720836955152,
AF4,97.10117245993807,17.97674279654932,4.157448220270992,7.810715453155871,32.41811708936397,
AF3,85.26417681263916,35.21344878696861,2.836568429428156,17.227725635462853,27.55678925924241,
T7,20.91135607232992,92.64267455526185,18.0583024714837,72.911085483245,111.90236443729088,
Pz,56.58908182772021,43.249528164480594,38.73975281819324,251.12573372622165,252.52047487924608,
T8,13.214764010309615,70.59896341495467,15.387700995151773,206.94962239927972,343.3720836955152,
AF4,97.10117245993807,17.97674279654932,4.157448220270992,7.810715453155871,32.41811708936397,
AF3,85.26417681263916,35.21344878696861,2.836568429428156,17.227725635462853,27.55678925924241,
T7,20.91135607232992,92.64267455526185,18.0583024714837,72.911085483245,111.90236443729088,
Pz,56.58908182772021,43.249528164480594,38.73975281819324,251.12573372622165,252.52047487924608,
T8,13.214764010309615,70.59896341495467,15.387700995151773,206.94962239927972,343.3720836955152,
AF4,97.10117245993807,17.97674279654932,4.157448220270992,7.810715453155871,32.41811708936397,
AF3,85.26417681263916,35.21344878696861,2.836568429428156,17.227725635462853,27.55678925924241,
T7,20.91135607232992,92.64267455526185,18.0583024714837,72.911085483245,111.90236443729088,
Pz,56.58908182772021,43.249528164480594,38.73975281819324,251.12573372622165,252.52047487924608,
T8,13.214764010309615,70.59896341495467,15.387700995151773,206.94962239927972,343.3720836955152,
AF4,97.10117245993807,17.97674279654932,4.157448220270992,7.810715453155871,32.41811708936397,
AF3,85.26417681263916,35.21344878696861,2.836568429428156,17.227725635462853,27.55678925924241,
T7,20.91135607232992,92.64267455526185,18.0583024714837,72.911085483245,111.90236443729088,
Pz,56.58908182772021,43.249528164480594,38.73975281819324,251.12573372622165,252.52047487924608,
T8,13.214764010309615,70.59896341495467,15.387700995151773,206.94962239927972,343.3720836955152,
AF4,97.10117245993807,17.97674279654932,4.157448220270992,7.810715453155871,32.41811708936397,
AF3,85.26417681263916,35.21344878696861,2.836568429428156,17.227725635462853,27.55678925924241,
T7,20.91135607232992,92.64267455526185,18.0583024714837,72.911085483245,111.90236443729088,
Pz,56.58908182772021,43.249528164480594,38.73975281819324,251.12573372622165,252.52047487924608,
T8,13.214764010309615,70.59896341495467,15.387700995151773,206.94962239927972,343.3720836955152,
AF4,97.10117245993807,17.97674279654932,4.157448220270992,7.810715453155871,32.41811708936397,
AF3,85.26417681263916,35.21344878696861,2.836568429428156,17.227725635462853,27.55678925924241,
T7,20.91135607232992,92.64267455526185,18.0583024714837,72.911085483245,111.90236443729088,
Pz,56.58908182772021,43.249528164480594,38.73975281819324,251.12573372622165,252.52047487924608,
T8,13.214764010309615,70.59896341495467,15.387700995151773,206.94962239927972,343.3720836955152,
AF4,97.10117245993807,17.97674279654932,4.157448220270992,7.810715453155871,32.41811708936397,
AF3,85.26417681263916,35.21344878696861,2.836568429428156,17.227725635462853,27.55678925924241,
T7,20.91135607232992,92.64267455526185,18.0583024714837,72.911085483245,111.90236443729088,
Pz,56.58908182772021,43.249528164480594,38.73975281819324,251.12573372622165,252.52047487924608,
T8,13.214764010309615,70.59896341495467,15.387700995151773,206.94962239927972,343.3720836955152,
AF4,97.10117245993807,17.97674279654932,4.157448220270992,7.810715453155871,32.41811708936397,
AF3,85.26417681263916,35.21344878696861,2.836568429428156,17.227725635462853,27.55678925924241,
T7,20.91135607232992,92.64267455526185,18.0583024714837,72.911085483245,111.90236443729088,
Pz,56.58908182772021,43.249528164480594,38.73975281819324,251.12573372622165,252.52047487924608,
T8,13.214764010309615,70.59896341495467,15.387700995151773,206.94962239927972,343.3720836955152,
AF4,97.10117245993807,17.97674279654932,4.157448220270992,7.810715453155871,32.41811708936397,
AF3,85.26417681263916,35.21344878696861,2.836568429428156,17.227725635462853,27.55678925924241,
T7,20.91135607232992,92.64267455526185,18.0583024714837,72.911085483245,111.90236443729088,
Pz,56.58908182772021,43.249528164480594,38.73975281819324,251.12573372622165,252.52047487924608,
T8,13.214764010309615,70.59896341495467,15.387700995151773,206.94962239927972,343.3720836955152,
AF4,97.10117245993807,17.97674279654932,4.157448220270992,7.810715453155871,32.41811708936397,
AF3,85.26417681263916,35.21344878696861,2.836568429428156,17.227725635462853,27.55678925924241,
T7,20.91135607232992,92.64267455526185,18.0583024714837,72.911085483245,111.90236443729088,
Pz,56.58908182772021,43.249528164480594,38.73975281819324,251.12573372622165,252.52047487924608,
T8,13.214764010309615,70.59896341495467,15.387700995151773,206.94962239927972,343.3720836955152,
AF4,97.10117245993807,17.97674279654932,4.157448220270992,7.810715453155871,32.41811708936397,
AF3,85.26417681263916,35.21344878696861,2.836568429428156,17.227725635462853,27.55678925924241,
T7,20.91135607232992,92.64267455526185,18.0583024714837,72.911085483245,111.90236443729088,
Pz,56.58908182772021,43.249528164480594,38.73975281819324,251.12573372622165,252.52047487924608,
T8,13.214764010309615,70.59896341495467,15.387700995151773,206.94962239927972,343.3720836955152,
AF4,97.10117245993807,17.97674279654932,4.157448220270992,7.810715453155871,32.41811708936397,
AF3,85.26417681263916,35.21344878696861,2.836568429428156,17.227725635462853,27.55678925924241,
T7,20.91135607232992,92.64267455526185,18.0583024714837,72.911085483245,111.90236443729088,
Pz,56.58908182772021,43.249528164480594,38.73975281819324,251.12573372622165,252.52047487924608,
T8,13.214764010309615,70.59896341495467,15.387700995151773,206.94962239927972,343.3720836955152,
AF4,97.10117245993807,17.97674279654932,4.157448220270992,7.810715453155871,32.41811708936397,
AF3,85.26417681263916,35.21344878696861,2.836568429428156,17.227725635462853,27.55678925924241,
T7,20.91135607232992,92.64267455526185,18.0583024714837,72.911085483245,111.90236443729088,
Pz,56.58908182772021,43.249528164480594,38.73975281819324,251.12573372622165,252.52047487924608,
T8,13.214764010309615,70.59896341495467,15.387700995151773,206.94962239927972,343.3720836955152,
AF4,97.10117245993807,17.97674279654932,4.157448220270992,7.810715453155871,32.41811708936397,
AF3,85.26417681263916,35.21344878696861,2.836568429428156,17.227725635462853,27.55678925924241,
T7,20.91135607232992,92.64267455526185,18.0583024714837,72.911085483245,111.90236443729088,
Pz,56.58908182772021,43.249528164480594,38.73975281819324,251.12573372622165,252.52047487924608,
T8,13.214764010309615,70.59896341495467,15.387700995151773,206.94962239927972,343.3720836955152,
AF4,97.10117245993807,17.97674279654932,4.157448220270992,7.810715453155871,32.41811708936397,
AF3,85.26417681263916,35.21344878696861,2.836568429428156,17.227725635462853,27.55678925924241,
T7,20.91135607232992,92.64267455526185,18.0583024714837,72.911085483245,111.90236443729088,
Pz,56.58908182772021,43.249528164480594,38.73975281819324,251.12573372622165,252.52047487924608,
T8,13.214764010309615,70.59896341495467,15.387700995151773,206.94962239927972,343.3720836955152,
AF4,97.10117245993807,17.97674279654932,4.157448220270992,7.810715453155871,32.41811708936397,
AF3,85.26417681263916,35.21344878696861,2.836568429428156,17.227725635462853,27.55678925924241,
T7,20.91135607232992,92.64267455526185,18.0583024714837,72.911085483245,111.90236443729088,
Pz,56.58908182772021,43.249528164480594,38.73975281819324,251.12573372622165,252.52047487924608,
T8,13.214764010309615,70.59896341495467,15.387700995151773,206.94962239927972,343.3720836955152,
AF4,97.10117245993807,17.97674279654932,4.157448220270992,7.810715453155871,32.41811708936397,
AF3,85.26417681263916,35.21344878696861,2.836568429428156,17.227725635462853,27.55678925924241,
T7,20.91135607232992,92.64267455526185,18.0583024714837,72.911085483245,111.90236443729088,
Pz,56.58908182772021,43.249528164480594,38.73975281819324,251.12573372622165,252.52047487924608,
T8,13.214764010309615,70.59896341495467,15.387700995151773,206.94962239927972,343.3720836955152,
AF4,97.10117245993807,17.97674279654932,4.157448220270992,7.810715453155871,32.41811708936397,
AF3,85.26417681263916,35.21344878696861,2.836568429428156,17.227725635462853,27.55678925924241,
T7,20.91135607232992,92.64267455526185,18.0583024714837,72.911085483245,111.90236443729088,
Pz,56.58908182772021,43.249528164480594,38.73975281819324,251.12573372622165,252.52047487924608,
T8,13.214764010309615,70.59896341495467,15.387700995151773,206.94962239927972,343.3720836955152,
AF4,97.10117245993807,17.97674279654932,4.157448220270992,7.810715453155871,32.41811708936397,
AF3,85.26417681263916,35.21344878696861,2.836568429428156,17.227725635462853,27.55678925924241,
T7,20.91135607232992,92.64267455526185,18.0583024714837,72.911085483245,111.90236443729088,
Pz,56.58908182772021,43.249528164480594,38.73975281819324,251.12573372622165,252.52047487924608,
T8,13.214764010309615,70.59896341495467,15.387700995151773,206.94962239927972,343.3720836955152,
AF4,97.10117245993807,17.97674279654932,4.157448220270992,7.810715453155871,32.41811708936397,
AF3,85.26417681263916,35.21344878696861,2.836568429428156,17.227725635462853,27.55678925924241,
T7,20.91135607232992,92.64267455526185,18.0583024714837,72.911085483245,111.90236443729088,
Pz,56.58908182772021,43.249528164480594,38.73975281819324,251.12573372622165,252.52047487924608,
T8,13.214764010309615,70.59896341495467,15.387700995151773,206.94962239927972,343.3720836955152,
AF4,97.10117245993807,17.97674279654932,4.157448220270992,7.810715453155871,32.41811708936397,
AF3,85.26417681263916,35.21344878696861,2.836568429428156,17.227725635462853,27.55678925924241,
T7,20.91135607232992,92.64267455526185,18.0583024714837,72.911085483245,111.90236443729088,
Pz,56.58908182772021,43.249528164480594,38.73975281819324,251.12573372622165,252.52047487924608,
T8,13.214764010309615,70.59896341495467,15.387700995151773,206.94962239927972,343.3720836955152,
AF4,97.10117245993807,17.97674279654932,4.157448220270992,7.810715453155871,32.41811708936397,
AF3,85.26417681263916,35.21344878696861,2.836568429428156,17.227725635462853,27.55678925924241,
T7,20.91135607232992,92.64267455526185,18.0583024714837,72.911085483245,111.90236443729088,
Pz,56.58908182772021,43.249528164480594,38.73975281819324,251.12573372622165,252.52047487924608,
T8,13.214764010309615,70.59896341495467,15.387700995151773,206.94962239927972,343.3720836955152,
AF4,97.10117245993807,17.97674279654932,4.157448220270992,7.810715453155871,32.41811708936397,
AF3,85.26417681263916,35.21344878696861,2.836568429428156,17.227725635462853,27.55678925924241,
T7,20.91135607232992,92.64267455526185,18.0583024714837,72.911085483245,111.90236443729088,
Pz,56.58908182772021,43.249528164480594,38.73975281819324,251.12573372622165,252.52047487924608,
T8,13.214764010309615,70.59896341495467,15.387700995151773,206.94962239927972,343.3720836955152,
AF4,97.10117245993807,17.97674279654932,4.157448220270992,7.810715453155871,32.41811708936397,
AF3,85.26417681263916,35.21344878696861,2.836568429428156,17.227725635462853,27.55678925924241,
T7,20.91135607232992,92.64267455526185,18.0583024714837,72.911085483245,111.90236443729088,
Pz,56.58908182772021,43.249528164480594,38.73975281819324,251.12573372622165,252.52047487924608,
T8,13.214764010309615,70.59896341495467,15.387700995151773,206.94962239927972,343.3720836955152,
AF4,97.10117245993807,17.97674279654932,4.157448220270992,7.810715453155871,32.41811708936397,
AF3,85.26417681263916,35.21344878696861,2.836568429428156,17.227725635462853,27.55678925924241,
T7,20.91135607232992,92.64267455526185,18.0583024714837,72.911085483245,111.90236443729088,
Pz,56.58908182772021,43.249528164480594,38.73975281819324,251.12573372622165,252.52047487924608,
T8,13.214764010309615,70.59896341495467,15.387700995151773,206.94962239927972,343.3720836955152,
AF4,97.10117245993807,17.97674279654932,4.157448220270992,7.810715453155871,32.41811708936397,
AF3,85.26417681263916,35.21344878696861,2.836568429428156,17.227725635462853,27.55678925924241,
T7,20.91135607232992,92.64267455526185,18.0583024714837,72.911085483245,111.90236443729088,
Pz,56.58908182772021,43.249528164480594,38.73975281819324,251.12573372622165,252.52047487924608,
T8,13.214764010309615,70.59896341495467,15.387700995151773,206.94962239927972,343.3720836955152,
AF4,97.10117245993807,17.97674279654932,4.157448220270992,7.810715453155871,32.41811708936397,
AF3,85.26417681263916,35.21344878696861,2.836568429428156,17.227725635462853,27.55678925924241,
T7,20.91135607232992,92.64267455526185,18.0583024714837,72.911085483245,111.90236443729088,
Pz,56.58908182772021,43.249528164480594,38.73975281819324,251.12573372622165,252.52047487924608,
T8,13.214764010309615,70.59896341495467,15.387700995151773,206.94962239927972,343.3720836955152,
AF4,97.10117245993807,17.97674279654932,4.157448220270992,7.810715453155871,32.41811708936397,
AF3,85.26417681263916,35.21344878696861,2.836568429428156,17.227725635462853,27.55678925924241,
T7,20.91135607232992,92.64267455526185,18.0583024714837,72.911085483245,111.90236443729088,
Pz,56.58908182772021,43.249528164480594,38.73975281819324,251.12573372622165,252.52047487924608,
T8,13.214764010309615,70.59896341495467,15.387700995151773,206.94962239927972,343.3720836955152,
AF4,97.10117245993807,17.97674279654932,4.157448220270992,7.810715453155871,32.41811708936397,
AF3,85.26417681263916,35.21344878696861,2.836568429428156,17.227725635462853,27.55678925924241,
T7,20.91135607232992,92.64267455526185,18.0583024714837,72.911085483245,111.90236443729088,
Pz,56.58908182772021,43.249528164480594,38.73975281819324,251.12573372622165,252.52047487924608,
T8,13.214764010309615,70.59896341495467,15.387700995151773,206.94962239927972,343.3720836955152,
AF4,97.10117245993807,17.97674279654932,4.157448220270992,7.810715453155871,32.41811708936397,
AF3,85.26417681263916,35.21344878696861,2.836568429428156,17.227725635462853,27.55678925924241,
T7,20.91135607232992,92.64267455526185,18.0583024714837,72.911085483245,111.90236443729088,
Pz,56.58908182772021,43.249528164480594,38.73975281819324,251.12573372622165,252.52047487924608,
T8,13.214764010309615,70.59896341495467,15.387700995151773,206.94962239927972,343.3720836955152,
AF4,97.10117245993807,17.97674279654932,4.157448220270992,7.810715453155871,32.41811708936397,
AF3,85.26417681263916,35.21344878696861,2.836568429428156,17.227725635462853,27.55678925924241,
T7,20.91135607232992,92.64267455526185,18.0583024714837,72.911085483245,111.90236443729088,
Pz,56.58908182772021,43.249528164480594,38.73975281819324,251.12573372622165,252.52047487924608,
T8,13.214764010309615,70.59896341495467,15.387700995151773,206.94962239927972,343.3720836955152,
AF4,97.10117245993807,17.97674279654932,4.157448220270992,7.810715453155871,32.41811708936397,
AF3,85.26417681263916,35.21344878696861,2.836568429428156,17.227725635462853,27.55678925924241,
T7,20.91135607232992,92.64267455526185,18.0583024714837,72.911085483245,111.90236443729088,
Pz,56.58908182772021,43.249528164480594,38.73975281819324,251.12573372622165,252.52047487924608,
T8,13.214764010309615,70.59896341495467,15.387700995151773,206.94962239927972,343.3720836955152,
AF4,97.10117245993807,17.97674279654932,4.157448220270992,7.810715453155871,32.41811708936397,
AF3,85.26417681263916,35.21344878696861,2.836568429428156,17.227725635462853,27.55678925924241,
T7,20.91135607232992,92.64267455526185,18.0583024714837,72.911085483245,111.90236443729088,
Pz,56.58908182772021,43.249528164480594,38.73975281819324,251.12573372622165,252.52047487924608,
T8,13.214764010309615,70.59896341495467,15.387700995151773,206.94962239927972,343.3720836955152,
AF4,97.10117245993807,17.97674279654932,4.157448220270992,7.810715453155871,32.41811708936397,
AF3,85.26417681263916,35.21344878696861,2.836568429428156,17.227725635462853,27.55678925924241,
T7,20.91135607232992,92.64267455526185,18.0583024714837,72.911085483245,111.90236443729088,
Pz,56.58908182772021,43.249528164480594,38.73975281819324,251.12573372622165,252.52047487924608,
T8,13.214764010309615,70.59896341495467,15.387700995151773,206.94962239927972,343.3720836955152,
AF4,97.10117245993807,17.97674279654932,4.157448220270992,7.810715453155871,32.41811708936397,
AF3,85.26417681263916,35.21344878696861,2.836568429428156,17.227725635462853,27.55678925924241,
T7,20.91135607232992,92.64267455526185,18.0583024714837,72.911085483245,111.90236443729088,
Pz,56.58908182772021,43.249528164480594,38.73975281819324,251.12573372622165,252.52047487924608,
T8,13.214764010309615,70.59896341495467,15.387700995151773,206.94962239927972,343.3720836955152,
AF4,97.10117245993807,17.97674279654932,4.157448220270992,7.810715453155871,32.41811708936397,
AF3,85.26417681263916,35.21344878696861,2.836568429428156,17.227725635462853,27.55678925924241,
T7,20.91135607232992,92.64267455526185,18.0583024714837,72.911085483245,111.90236443729088,
Pz,56.58908182772021,43.249528164480594,38.73975281819324,251.12573372622165,252.52047487924608,
T8,13.214764010309615,70.59896341495467,15.387700995151773,206.94962239927972,343.3720836955152,
AF4,97.10117245993807,17.97674279654932,4.157448220270992,7.810715453155871,32.41811708936397,
AF3,85.26417681263916,35.21344878696861,2.836568429428156,17.227725635462853,27.55678925924241,
T7,20.91135607232992,92.64267455526185,18.0583024714837,72.911085483245,111.90236443729088,
Pz,56.58908182772021,43.249528164480594,38.73975281819324,251.12573372622165,252.52047487924608,
T8,13.214764010309615,70.59896341495467,15.387700995151773,206.94962239927972,343.3720836955152,
AF4,97.10117245993807,17.97674279654932,4.157448220270992,7.810715453155871,32.41811708936397,
AF3,85.26417681263916,35.21344878696861,2.836568429428156,17.227725635462853,27.55678925924241,
T7,20.91135607232992,92.64267455526185,18.0583024714837,72.911085483245,111.90236443729088,
Pz,56.58908182772021,43.249528164480594,38.73975281819324,251.12573372622165,252.52047487924608,
T8,13.214764010309615,70.59896341495467,15.387700995151773,206.94962239927972,343.3720836955152,
AF4,97.10117245993807,17.97674279654932,4.157448220270992,7.810715453155871,32.41811708936397,
AF3,85.26417681263916,35.21344878696861,2.836568429428156,17.227725635462853,27.55678925924241,
T7,20.91135607232992,92.64267455526185,18.0583024714837,72.911085483245,111.90236443729088,
Pz,56.58908182772021,43.249528164480594,38.73975281819324,251.12573372622165,252.52047487924608,
T8,13.214764010309615,70.59896341495467,15.387700995151773,206.94962239927972,343.3720836955152,
AF4,97.10117245993807,17.97674279654932,4.157448220270992,7.810715453155871,32.41811708936397,
AF3,85.26417681263916,35.21344878696861,2.836568429428156,17.227725635462853,27.55678925924241,
T7,20.91135607232992,92.64267455526185,18.0583024714837,72.911085483245,111.90236443729088,
Pz,56.58908182772021,43.249528164480594,38.73975281819324,251.12573372622165,252.52047487924608,
T8,13.214764010309615,70.59896341495467,15.387700995151773,206.94962239927972,343.3720836955152,
AF4,97.10117245993807,17.97674279654932,4.157448220270992,7.810715453155871,32.41811708936397,
AF3,85.26417681263916,35.21344878696861,2.836568429428156,17.227725635462853,27.55678925924241,
T7,20.91135607232992,92.64267455526185,18.0583024714837,72.911085483245,111.90236443729088,
Pz,56.58908182772021,43.249528164480594,38.73975281819324,251.12573372622165,252.52047487924608,
T8,13.214764010309615,70.59896341495467,15.387700995151773,206.94962239927972,343.3720836955152,
AF4,97.10117245993807,17.97674279654932,4.157448220270992,7.810715453155871,32.41811708936397,
AF3,85.26417681263916,35.21344878696861,2.836568429428156,17.227725635462853,27.55678925924241,
T7,20.91135607232992,92.64267455526185,18.0583024714837,72.911085483245,111.90236443729088,
Pz,56.58908182772021,43.249528164480594,38.73975281819324,251.12573372622165,252.52047487924608,
T8,13.214764010309615,70.59896341495467,15.387700995151773,206.94962239927972,343.3720836955152,
AF4,97.10117245993807,17.97674279654932,4.157448220270992,7.810715453155871,32.41811708936397,
AF3,85.26417681263916,35.21344878696861,2.836568429428156,17.227725635462853,27.55678925924241,
T7,20.91135607232992,92.64267455526185,18.0583024714837,72.911085483245,111.90236443729088,
Pz,56.58908182772021,43.249528164480594,38.73975281819324,251.12573372622165,252.52047487924608,
T8,13.214764010309615,70.59896341495467,15.387700995151773,206.94962239927972,343.3720836955152,
AF4,97.10117245993807,17.97674279654932,4.157448220270992,7.810715453155871,32.41811708936397,
AF3,85.26417681263916,35.21344878696861,2.836568429428156,17.227725635462853,27.55678925924241,
T7,20.91135607232992,92.64267455526185,18.0583024714837,72.911085483245,111.90236443729088,
Pz,56.58908182772021,43.249528164480594,38.73975281819324,251.12573372622165,252.52047487924608,
T8,13.214764010309615,70.59896341495467,15.387700995151773,206.94962239927972,343.3720836955152,
AF4,97.10117245993807,17.97674279654932,4.157448220270992,7.810715453155871,32.41811708936397,
AF3,85.26417681263916,35.21344878696861,2.836568429428156,17.227725635462853,27.55678925924241,
T7,20.91135607232992,92.64267455526185,18.0583024714837,72.911085483245,111.90236443729088,
Pz,56.58908182772021,43.249528164480594,38.73975281819324,251.12573372622165,252.52047487924608,
T8,13.214764010309615,70.59896341495467,15.387700995151773,206.94962239927972,343.3720836955152,
AF4,97.10117245993807,17.97674279654932,4.157448220270992,7.810715453155871,32.41811708936397,
AF3,85.26417681263916,35.21344878696861,2.836568429428156,17.227725635462853,27.55678925924241,
T7,20.91135607232992,92.64267455526185,18.0583024714837,72.911085483245,111.90236443729088,
Pz,56.58908182772021,43.249528164480594,38.73975281819324,251.12573372622165,252.52047487924608,
T8,13.214764010309615,70.59896341495467,15.387700995151773,206.94962239927972,343.3720836955152,
AF4,97.10117245993807,17.97674279654932,4.157448220270992,7.810715453155871,32.41811708936397,
AF3,85.26417681263916,35.21344878696861,2.836568429428156,17.227725635462853,27.55678925924241,
T7,20.91135607232992,92.64267455526185,18.0583024714837,72.911085483245,111.90236443729088,
Pz,56.58908182772021,43.249528164480594,38.73975281819324,251.12573372622165,252.52047487924608,
T8,13.214764010309615,70.59896341495467,15.387700995151773,206.94962239927972,343.3720836955152,
AF4,97.10117245993807,17.97674279654932,4.157448220270992,7.810715453155871,32.41811708936397,
AF3,85.26417681263916,35.21344878696861,2.836568429428156,17.227725635462853,27.55678925924241,
T7,20.91135607232992,92.64267455526185,18.0583024714837,72.911085483245,111.90236443729088,
Pz,56.58908182772021,43.249528164480594,38.73975281819324,251.12573372622165,252.52047487924608,
T8,13.214764010309615,70.59896341495467,15.387700995151773,206.94962239927972,343.3720836955152,
AF4,97.10117245993807,17.97674279654932,4.157448220270992,7.810715453155871,32.41811708936397,
AF3,85.26417681263916,35.21344878696861,2.836568429428156,17.227725635462853,27.55678925924241,
T7,20.91135607232992,92.64267455526185,18.0583024714837,72.911085483245,111.90236443729088,
Pz,56.58908182772021,43.249528164480594,38.73975281819324,251.12573372622165,252.52047487924608,
T8,13.214764010309615,70.59896341495467,15.387700995151773,206.94962239927972,343.3720836955152,
AF4,97.10117245993807,17.97674279654932,4.157448220270992,7.810715453155871,32.41811708936397,
AF3,85.26417681263916,35.21344878696861,2.836568429428156,17.227725635462853,27.55678925924241,
T7,20.91135607232992,92.64267455526185,18.0583024714837,72.911085483245,111.90236443729088,
Pz,56.58908182772021,43.249528164480594,38.73975281819324,251.12573372622165,252.52047487924608,
T8,13.214764010309615,70.59896341495467,15.387700995151773,206.94962239927972,343.3720836955152,
AF4,97.10117245993807,17.97674279654932,4.157448220270992,7.810715453155871,32.41811708936397,
AF3,85.26417681263916,35.21344878696861,2.836568429428156,17.227725635462853,27.55678925924241,
T7,20.91135607232992,92.64267455526185,18.0583024714837,72.911085483245,111.90236443729088,
Pz,56.58908182772021,43.249528164480594,38.73975281819324,251.12573372622165,252.52047487924608,
T8,13.214764010309615,70.59896341495467,15.387700995151773,206.94962239927972,343.3720836955152,
AF4,97.10117245993807,17.97674279654932,4.157448220270992,7.810715453155871,32.41811708936397,
AF3,85.26417681263916,35.21344878696861,2.836568429428156,17.227725635462853,27.55678925924241,
T7,20.91135607232992,92.64267455526185,18.0583024714837,72.911085483245,111.90236443729088,
Pz,56.58908182772021,43.249528164480594,38.73975281819324,251.12573372622165,252.52047487924608,
T8,13.214764010309615,70.59896341495467,15.387700995151773,206.94962239927972,343.3720836955152,
AF4,97.10117245993807,17.97674279654932,4.157448220270992,7.810715453155871,32.41811708936397,
AF3,85.26417681263916,35.21344878696861,2.836568429428156,17.227725635462853,27.55678925924241,
T7,20.91135607232992,92.64267455526185,18.0583024714837,72.911085483245,111.90236443729088,
Pz,56.58908182772021,43.249528164480594,38.73975281819324,251.12573372622165,252.52047487924608,
T8,13.214764010309615,70.59896341495467,15.387700995151773,206.94962239927972,343.3720836955152,
AF4,97.10117245993807,17.97674279654932,4.157448220270992,7.810715453155871,32.41811708936397,
AF3,85.26417681263916,35.21344878696861,2.836568429428156,17.227725635462853,27.55678925924241,
T7,20.91135607232992,92.64267455526185,18.0583024714837,72.911085483245,111.90236443729088,
Pz,56.58908182772021,43.249528164480594,38.73975281819324,251.12573372622165,252.52047487924608,
T8,13.214764010309615,70.59896341495467,15.387700995151773,206.94962239927972,343.3720836955152,
AF4,97.10117245993807,17.97674279654932,4.157448220270992,7.810715453155871,32.41811708936397,
AF3,85.26417681263916,35.21344878696861,2.836568429428156,17.227725635462853,27.55678925924241,
T7,20.91135607232992,92.64267455526185,18.0583024714837,72.911085483245,111.90236443729088,
Pz,56.58908182772021,43.249528164480594,38.73975281819324,251.12573372622165,252.52047487924608,
T8,13.214764010309615,70.59896341495467,15.387700995151773,206.94962239927972,343.3720836955152,
AF4,97.10117245993807,17.97674279654932,4.157448220270992,7.810715453155871,32.41811708936397,
AF3,85.26417681263916,35.21344878696861,2.836568429428156,17.227725635462853,27.55678925924241,
T7,20.91135607232992,92.64267455526185,18.0583024714837,72.911085483245,111.90236443729088,
Pz,56.58908182772021,43.249528164480594,38.73975281819324,251.12573372622165,252.52047487924608,
T8,13.214764010309615,70.59896341495467,15.387700995151773,206.94962239927972,343.3720836955152,
AF4,97.10117245993807,17.97674279654932,4.157448220270992,7.810715453155871,32.41811708936397,
AF3,85.26417681263916,35.21344878696861,2.836568429428156,17.227725635462853,27.55678925924241,
T7,20.91135607232992,92.64267455526185,18.0583024714837,72.911085483245,111.90236443729088,
Pz,56.58908182772021,43.249528164480594,38.73975281819324,251.12573372622165,252.52047487924608,
T8,13.214764010309615,70.59896341495467,15.387700995151773,206.94962239927972,343.3720836955152,
AF4,97.10117245993807,17.97674279654932,4.157448220270992,7.810715453155871,32.41811708936397,
AF3,85.26417681263916,35.21344878696861,2.836568429428156,17.227725635462853,27.55678925924241,
T7,20.91135607232992,92.64267455526185,18.0583024714837,72.911085483245,111.90236443729088,
Pz,56.58908182772021,43.249528164480594,38.73975281819324,251.12573372622165,252.52047487924608,
T8,13.214764010309615,70.59896341495467,15.387700995151773,206.94962239927972,343.3720836955152,
AF4,97.10117245993807,17.97674279654932,4.157448220270992,7.810715453155871,32.41811708936397,
AF3,85.26417681263916,35.21344878696861,2.836568429428156,17.227725635462853,27.55678925924241,
T7,20.91135607232992,92.64267455526185,18.0583024714837,72.911085483245,111.90236443729088,
Pz,56.58908182772021,43.249528164480594,38.73975281819324,251.12573372622165,252.52047487924608,
T8,13.214764010309615,70.59896341495467,15.387700995151773,206.94962239927972,343.3720836955152,
AF4,97.10117245993807,17.97674279654932,4.157448220270992,7.810715453155871,32.41811708936397,
AF3,85.26417681263916,35.21344878696861,2.836568429428156,17.227725635462853,27.55678925924241,
T7,20.91135607232992,92.64267455526185,18.0583024714837,72.911085483245,111.90236443729088,
Pz,56.58908182772021,43.249528164480594,38.73975281819324,251.12573372622165,252.52047487924608,
T8,13.214764010309615,70.59896341495467,15.387700995151773,206.94962239927972,343.3720836955152,
AF4,97.10117245993807,17.97674279654932,4.157448220270992,7.810715453155871,32.41811708936397,
AF3,85.26417681263916,35.21344878696861,2.836568429428156,17.227725635462853,27.55678925924241,
T7,20.91135607232992,92.64267455526185,18.0583024714837,72.911085483245,111.90236443729088,
Pz,56.58908182772021,43.249528164480594,38.73975281819324,251.12573372622165,252.52047487924608,
T8,13.214764010309615,70.59896341495467,15.387700995151773,206.94962239927972,343.3720836955152,
AF4,97.10117245993807,17.97674279654932,4.157448220270992,7.810715453155871,32.41811708936397,
AF3,85.26417681263916,35.21344878696861,2.836568429428156,17.227725635462853,27.55678925924241,
T7,20.91135607232992,92.64267455526185,18.0583024714837,72.911085483245,111.90236443729088,
Pz,56.58908182772021,43.249528164480594,38.73975281819324,251.12573372622165,252.52047487924608,
T8,13.214764010309615,70.59896341495467,15.387700995151773,206.94962239927972,343.3720836955152,
AF4,97.10117245993807,17.97674279654932,4.157448220270992,7.810715453155871,32.41811708936397,
AF3,85.26417681263916,35.21344878696861,2.836568429428156,17.227725635462853,27.55678925924241,
T7,20.91135607232992,92.64267455526185,18.0583024714837,72.911085483245,111.90236443729088,
Pz,56.58908182772021,43.249528164480594,38.73975281819324,251.12573372622165,252.52047487924608,
T8,13.214764010309615,70.59896341495467,15.387700995151773,206.94962239927972,343.3720836955152,
AF4,97.10117245993807,17.97674279654932,4.157448220270992,7.810715453155871,32.41811708936397,
AF3,85.26417681263916,35.21344878696861,2.836568429428156,17.227725635462853,27.55678925924241,
T7,20.91135607232992,92.64267455526185,18.0583024714837,72.911085483245,111.90236443729088,
Pz,56.58908182772021,43.249528164480594,38.73975281819324,251.12573372622165,252.52047487924608,
T8,13.214764010309615,70.59896341495467,15.387700995151773,206.94962239927972,343.3720836955152,
AF4,97.10117245993807,17.97674279654932,4.157448220270992,7.810715453155871,32.41811708936397,
AF3,85.26417681263916,35.21344878696861,2.836568429428156,17.227725635462853,27.55678925924241,
T7,20.91135607232992,92.64267455526185,18.0583024714837,72.911085483245,111.90236443729088,
Pz,56.58908182772021,43.249528164480594,38.73975281819324,251.12573372622165,252.52047487924608,
T8,13.214764010309615,70.59896341495467,15.387700995151773,206.94962239927972,343.3720836955152,
AF4,97.10117245993807,17.97674279654932,4.157448220270992,7.810715453155871,32.41811708936397,
AF3,85.26417681263916,35.21344878696861,2.836568429428156,17.227725635462853,27.55678925924241,
T7,20.91135607232992,92.64267455526185,18.0583024714837,72.911085483245,111.90236443729088,
Pz,56.58908182772021,43.249528164480594,38.73975281819324,251.12573372622165,252.52047487924608,
T8,13.214764010309615,70.59896341495467,15.387700995151773,206.94962239927972,343.3720836955152,
AF4,97.10117245993807,17.97674279654932,4.157448220270992,7.810715453155871,32.41811708936397,
AF3,85.26417681263916,35.21344878696861,2.836568429428156,17.227725635462853,27.55678925924241,
T7,20.91135607232992,92.64267455526185,18.0583024714837,72.911085483245,111.90236443729088,
Pz,56.58908182772021,43.249528164480594,38.73975281819324,251.12573372622165,252.52047487924608,
T8,13.214764010309615,70.59896341495467,15.387700995151773,206.94962239927972,343.3720836955152,
AF4,97.10117245993807,17.97674279654932,4.157448220270992,7.810715453155871,32.41811708936397,
AF3,85.26417681263916,35.21344878696861,2.836568429428156,17.227725635462853,27.55678925924241,
T7,20.91135607232992,92.64267455526185,18.0583024714837,72.911085483245,111.90236443729088,
Pz,56.58908182772021,43.249528164480594,38.73975281819324,251.12573372622165,252.52047487924608,
T8,13.214764010309615,70.59896341495467,15.387700995151773,206.94962239927972,343.3720836955152,
AF4,97.10117245993807,17.97674279654932,4.157448220270992,7.810715453155871,32.41811708936397,
AF3,85.26417681263916,35.21344878696861,2.836568429428156,17.227725635462853,27.55678925924241,
T7,20.91135607232992,92.64267455526185,18.0583024714837,72.911085483245,111.90236443729088,
Pz,56.58908182772021,43.249528164480594,38.73975281819324,251.12573372622165,252.52047487924608,
T8,13.214764010309615,70.59896341495467,15.387700995151773,206.94962239927972,343.3720836955152,
AF4,97.10117245993807,17.97674279654932,4.157448220270992,7.810715453155871,32.41811708936397,
AF3,85.26417681263916,35.21344878696861,2.836568429428156,17.227725635462853,27.55678925924241,
T7,20.91135607232992,92.64267455526185,18.0583024714837,72.911085483245,111.90236443729088,
Pz,56.58908182772021,43.249528164480594,38.73975281819324,251.12573372622165,252.52047487924608,
T8,13.214764010309615,70.59896341495467,15.387700995151773,206.94962239927972,343.3720836955152,
AF4,97.10117245993807,17.97674279654932,4.157448220270992,7.810715453155871,32.41811708936397,
AF3,85.26417681263916,35.21344878696861,2.836568429428156,17.227725635462853,27.55678925924241,
T7,20.91135607232992,92.64267455526185,18.0583024714837,72.911085483245,111.90236443729088,
Pz,56.58908182772021,43.249528164480594,38.73975281819324,251.12573372622165,252.52047487924608,
T8,13.214764010309615,70.59896341495467,15.387700995151773,206.94962239927972,343.3720836955152,
AF4,97.10117245993807,17.97674279654932,4.157448220270992,7.810715453155871,32.41811708936397,
AF3,85.26417681263916,35.21344878696861,2.836568429428156,17.227725635462853,27.55678925924241,
T7,20.91135607232992,92.64267455526185,18.0583024714837,72.911085483245,111.90236443729088,
Pz,56.58908182772021,43.249528164480594,38.73975281819324,251.12573372622165,252.52047487924608,
T8,13.214764010309615,70.59896341495467,15.387700995151773,206.94962239927972,343.3720836955152,
AF4,97.10117245993807,17.97674279654932,4.157448220270992,7.810715453155871,32.41811708936397,
AF3,85.26417681263916,35.21344878696861,2.836568429428156,17.227725635462853,27.55678925924241,
T7,20.91135607232992,92.64267455526185,18.0583024714837,72.911085483245,111.90236443729088,
Pz,56.58908182772021,43.249528164480594,38.73975281819324,251.12573372622165,252.52047487924608,
T8,13.214764010309615,70.59896341495467,15.387700995151773,206.94962239927972,343.3720836955152,
AF4,97.10117245993807,17.97674279654932,4.157448220270992,7.810715453155871,32.41811708936397,
AF3,85.26417681263916,35.21344878696861,2.836568429428156,17.227725635462853,27.55678925924241,
T7,20.91135607232992,92.64267455526185,18.0583024714837,72.911085483245,111.90236443729088,
Pz,56.58908182772021,43.249528164480594,38.73975281819324,251.12573372622165,252.52047487924608,
T8,13.214764010309615,70.59896341495467,15.387700995151773,206.94962239927972,343.3720836955152,
AF4,97.10117245993807,17.97674279654932,4.157448220270992,7.810715453155871,32.41811708936397,
AF3,85.26417681263916,35.21344878696861,2.836568429428156,17.227725635462853,27.55678925924241,
T7,20.91135607232992,92.64267455526185,18.0583024714837,72.911085483245,111.90236443729088,
Pz,56.58908182772021,43.249528164480594,38.73975281819324,251.12573372622165,252.52047487924608,
T8,13.214764010309615,70.59896341495467,15.387700995151773,206.94962239927972,343.3720836955152,
AF4,97.10117245993807,17.97674279654932,4.157448220270992,7.810715453155871,32.41811708936397,
AF3,85.26417681263916,35.21344878696861,2.836568429428156,17.227725635462853,27.55678925924241,
T7,20.91135607232992,92.64267455526185,18.0583024714837,72.911085483245,111.90236443729088,
Pz,56.58908182772021,43.249528164480594,38.73975281819324,251.12573372622165,252.52047487924608,
T8,13.214764010309615,70.59896341495467,15.387700995151773,206.94962239927972,343.3720836955152,
AF4,97.10117245993807,17.97674279654932,4.157448220270992,7.810715453155871,32.41811708936397,
AF3,111.40507551658268,32.78178346025592,6.061288539268637,8.448817490913077,37.43882913115216,
T7,14.378043014423062,68.72546867474426,18.626807202938387,58.577762832783925,125.69945549652637,
Pz,29.21125819427725,69.68797149596158,74.21991981763682,173.090945771522,323.78931931594775,
T8,9.571567209700111,84.116480277429,51.795215735121864,172.4138608863795,388.91767594822795,
AF4,104.61721147759876,21.521974913929153,4.856845611123415,6.478065947371609,29.300978416627718,
AF3,111.40507551658268,32.78178346025592,6.061288539268637,8.448817490913077,37.43882913115216,
T7,14.378043014423062,68.72546867474426,18.626807202938387,58.577762832783925,125.69945549652637,
Pz,29.21125819427725,69.68797149596158,74.21991981763682,173.090945771522,323.78931931594775,
T8,9.571567209700111,84.116480277429,51.795215735121864,172.4138608863795,388.91767594822795,
AF4,104.61721147759876,21.521974913929153,4.856845611123415,6.478065947371609,29.300978416627718,
AF3,111.40507551658268,32.78178346025592,6.061288539268637,8.448817490913077,37.43882913115216,
T7,14.378043014423062,68.72546867474426,18.626807202938387,58.577762832783925,125.69945549652637,
Pz,29.21125819427725,69.68797149596158,74.21991981763682,173.090945771522,323.78931931594775,
T8,9.571567209700111,84.116480277429,51.795215735121864,172.4138608863795,388.91767594822795,
AF4,104.61721147759876,21.521974913929153,4.856845611123415,6.478065947371609,29.300978416627718,
AF3,111.40507551658268,32.78178346025592,6.061288539268637,8.448817490913077,37.43882913115216,
T7,14.378043014423062,68.72546867474426,18.626807202938387,58.577762832783925,125.69945549652637,
Pz,29.21125819427725,69.68797149596158,74.21991981763682,173.090945771522,323.78931931594775,
T8,9.571567209700111,84.116480277429,51.795215735121864,172.4138608863795,388.91767594822795,
AF4,104.61721147759876,21.521974913929153,4.856845611123415,6.478065947371609,29.300978416627718,
AF3,111.40507551658268,32.78178346025592,6.061288539268637,8.448817490913077,37.43882913115216,
T7,14.378043014423062,68.72546867474426,18.626807202938387,58.577762832783925,125.69945549652637,
Pz,29.21125819427725,69.68797149596158,74.21991981763682,173.090945771522,323.78931931594775,
T8,9.571567209700111,84.116480277429,51.795215735121864,172.4138608863795,388.91767594822795,
AF4,104.61721147759876,21.521974913929153,4.856845611123415,6.478065947371609,29.300978416627718,
AF3,111.40507551658268,32.78178346025592,6.061288539268637,8.448817490913077,37.43882913115216,
T7,14.378043014423062,68.72546867474426,18.626807202938387,58.577762832783925,125.69945549652637,
Pz,29.21125819427725,69.68797149596158,74.21991981763682,173.090945771522,323.78931931594775,
T8,9.571567209700111,84.116480277429,51.795215735121864,172.4138608863795,388.91767594822795,
AF4,104.61721147759876,21.521974913929153,4.856845611123415,6.478065947371609,29.300978416627718,
AF3,111.40507551658268,32.78178346025592,6.061288539268637,8.448817490913077,37.43882913115216,
T7,14.378043014423062,68.72546867474426,18.626807202938387,58.577762832783925,125.69945549652637,
Pz,29.21125819427725,69.68797149596158,74.21991981763682,173.090945771522,323.78931931594775,
T8,9.571567209700111,84.116480277429,51.795215735121864,172.4138608863795,388.91767594822795,
AF4,104.61721147759876,21.521974913929153,4.856845611123415,6.478065947371609,29.300978416627718,
AF3,111.40507551658268,32.78178346025592,6.061288539268637,8.448817490913077,37.43882913115216,
T7,14.378043014423062,68.72546867474426,18.626807202938387,58.577762832783925,125.69945549652637,
Pz,29.21125819427725,69.68797149596158,74.21991981763682,173.090945771522,323.78931931594775,
T8,9.571567209700111,84.116480277429,51.795215735121864,172.4138608863795,388.91767594822795,
AF4,104.61721147759876,21.521974913929153,4.856845611123415,6.478065947371609,29.300978416627718,
AF3,111.40507551658268,32.78178346025592,6.061288539268637,8.448817490913077,37.43882913115216,
T7,14.378043014423062,68.72546867474426,18.626807202938387,58.577762832783925,125.69945549652637,
Pz,29.21125819427725,69.68797149596158,74.21991981763682,173.090945771522,323.78931931594775,
T8,9.571567209700111,84.116480277429,51.795215735121864,172.4138608863795,388.91767594822795,
AF4,104.61721147759876,21.521974913929153,4.856845611123415,6.478065947371609,29.300978416627718,
AF3,111.40507551658268,32.78178346025592,6.061288539268637,8.448817490913077,37.43882913115216,
T7,14.378043014423062,68.72546867474426,18.626807202938387,58.577762832783925,125.69945549652637,
Pz,29.21125819427725,69.68797149596158,74.21991981763682,173.090945771522,323.78931931594775,
T8,9.571567209700111,84.116480277429,51.795215735121864,172.4138608863795,388.91767594822795,
AF4,104.61721147759876,21.521974913929153,4.856845611123415,6.478065947371609,29.300978416627718,
AF3,111.40507551658268,32.78178346025592,6.061288539268637,8.448817490913077,37.43882913115216,
T7,14.378043014423062,68.72546867474426,18.626807202938387,58.577762832783925,125.69945549652637,
Pz,29.21125819427725,69.68797149596158,74.21991981763682,173.090945771522,323.78931931594775,
T8,9.571567209700111,84.116480277429,51.795215735121864,172.4138608863795,388.91767594822795,
AF4,104.61721147759876,21.521974913929153,4.856845611123415,6.478065947371609,29.300978416627718,
AF3,111.40507551658268,32.78178346025592,6.061288539268637,8.448817490913077,37.43882913115216,
T7,14.378043014423062,68.72546867474426,18.626807202938387,58.577762832783925,125.69945549652637,
Pz,29.21125819427725,69.68797149596158,74.21991981763682,173.090945771522,323.78931931594775,
T8,9.571567209700111,84.116480277429,51.795215735121864,172.4138608863795,388.91767594822795,
AF4,104.61721147759876,21.521974913929153,4.856845611123415,6.478065947371609,29.300978416627718,
AF3,111.40507551658268,32.78178346025592,6.061288539268637,8.448817490913077,37.43882913115216,
T7,14.378043014423062,68.72546867474426,18.626807202938387,58.577762832783925,125.69945549652637,
Pz,29.21125819427725,69.68797149596158,74.21991981763682,173.090945771522,323.78931931594775,
T8,9.571567209700111,84.116480277429,51.795215735121864,172.4138608863795,388.91767594822795,
AF4,104.61721147759876,21.521974913929153,4.856845611123415,6.478065947371609,29.300978416627718,
AF3,111.40507551658268,32.78178346025592,6.061288539268637,8.448817490913077,37.43882913115216,
T7,14.378043014423062,68.72546867474426,18.626807202938387,58.577762832783925,125.69945549652637,
Pz,29.21125819427725,69.68797149596158,74.21991981763682,173.090945771522,323.78931931594775,
T8,9.571567209700111,84.116480277429,51.795215735121864,172.4138608863795,388.91767594822795,
AF4,104.61721147759876,21.521974913929153,4.856845611123415,6.478065947371609,29.300978416627718,
AF3,111.40507551658268,32.78178346025592,6.061288539268637,8.448817490913077,37.43882913115216,
T7,14.378043014423062,68.72546867474426,18.626807202938387,58.577762832783925,125.69945549652637,
Pz,29.21125819427725,69.68797149596158,74.21991981763682,173.090945771522,323.78931931594775,
T8,9.571567209700111,84.116480277429,51.795215735121864,172.4138608863795,388.91767594822795,
AF4,104.61721147759876,21.521974913929153,4.856845611123415,6.478065947371609,29.300978416627718,
AF3,111.40507551658268,32.78178346025592,6.061288539268637,8.448817490913077,37.43882913115216,
T7,14.378043014423062,68.72546867474426,18.626807202938387,58.577762832783925,125.69945549652637,
Pz,29.21125819427725,69.68797149596158,74.21991981763682,173.090945771522,323.78931931594775,
T8,9.571567209700111,84.116480277429,51.795215735121864,172.4138608863795,388.91767594822795,
AF4,104.61721147759876,21.521974913929153,4.856845611123415,6.478065947371609,29.300978416627718,
AF3,111.40507551658268,32.78178346025592,6.061288539268637,8.448817490913077,37.43882913115216,
T7,14.378043014423062,68.72546867474426,18.626807202938387,58.577762832783925,125.69945549652637,
Pz,29.21125819427725,69.68797149596158,74.21991981763682,173.090945771522,323.78931931594775,
T8,9.571567209700111,84.116480277429,51.795215735121864,172.4138608863795,388.91767594822795,
AF4,104.61721147759876,21.521974913929153,4.856845611123415,6.478065947371609,29.300978416627718,
AF3,111.40507551658268,32.78178346025592,6.061288539268637,8.448817490913077,37.43882913115216,
T7,14.378043014423062,68.72546867474426,18.626807202938387,58.577762832783925,125.69945549652637,
Pz,29.21125819427725,69.68797149596158,74.21991981763682,173.090945771522,323.78931931594775,
T8,9.571567209700111,84.116480277429,51.795215735121864,172.4138608863795,388.91767594822795,
AF4,104.61721147759876,21.521974913929153,4.856845611123415,6.478065947371609,29.300978416627718,
AF3,111.40507551658268,32.78178346025592,6.061288539268637,8.448817490913077,37.43882913115216,
T7,14.378043014423062,68.72546867474426,18.626807202938387,58.577762832783925,125.69945549652637,
Pz,29.21125819427725,69.68797149596158,74.21991981763682,173.090945771522,323.78931931594775,
T8,9.571567209700111,84.116480277429,51.795215735121864,172.4138608863795,388.91767594822795,
AF4,104.61721147759876,21.521974913929153,4.856845611123415,6.478065947371609,29.300978416627718,
AF3,111.40507551658268,32.78178346025592,6.061288539268637,8.448817490913077,37.43882913115216,
T7,14.378043014423062,68.72546867474426,18.626807202938387,58.577762832783925,125.69945549652637,
Pz,29.21125819427725,69.68797149596158,74.21991981763682,173.090945771522,323.78931931594775,
T8,9.571567209700111,84.116480277429,51.795215735121864,172.4138608863795,388.91767594822795,
AF4,104.61721147759876,21.521974913929153,4.856845611123415,6.478065947371609,29.300978416627718,
AF3,111.40507551658268,32.78178346025592,6.061288539268637,8.448817490913077,37.43882913115216,
T7,14.378043014423062,68.72546867474426,18.626807202938387,58.577762832783925,125.69945549652637,
Pz,29.21125819427725,69.68797149596158,74.21991981763682,173.090945771522,323.78931931594775,
T8,9.571567209700111,84.116480277429,51.795215735121864,172.4138608863795,388.91767594822795,
AF4,104.61721147759876,21.521974913929153,4.856845611123415,6.478065947371609,29.300978416627718,
AF3,111.40507551658268,32.78178346025592,6.061288539268637,8.448817490913077,37.43882913115216,
T7,14.378043014423062,68.72546867474426,18.626807202938387,58.577762832783925,125.69945549652637,
Pz,29.21125819427725,69.68797149596158,74.21991981763682,173.090945771522,323.78931931594775,
T8,9.571567209700111,84.116480277429,51.795215735121864,172.4138608863795,388.91767594822795,
AF4,104.61721147759876,21.521974913929153,4.856845611123415,6.478065947371609,29.300978416627718,
AF3,111.40507551658268,32.78178346025592,6.061288539268637,8.448817490913077,37.43882913115216,
T7,14.378043014423062,68.72546867474426,18.626807202938387,58.577762832783925,125.69945549652637,
Pz,29.21125819427725,69.68797149596158,74.21991981763682,173.090945771522,323.78931931594775,
T8,9.571567209700111,84.116480277429,51.795215735121864,172.4138608863795,388.91767594822795,
AF4,104.61721147759876,21.521974913929153,4.856845611123415,6.478065947371609,29.300978416627718,
AF3,111.40507551658268,32.78178346025592,6.061288539268637,8.448817490913077,37.43882913115216,
T7,14.378043014423062,68.72546867474426,18.626807202938387,58.577762832783925,125.69945549652637,
Pz,29.21125819427725,69.68797149596158,74.21991981763682,173.090945771522,323.78931931594775,
T8,9.571567209700111,84.116480277429,51.795215735121864,172.4138608863795,388.91767594822795,
AF4,104.61721147759876,21.521974913929153,4.856845611123415,6.478065947371609,29.300978416627718,
AF3,111.40507551658268,32.78178346025592,6.061288539268637,8.448817490913077,37.43882913115216,
T7,14.378043014423062,68.72546867474426,18.626807202938387,58.577762832783925,125.69945549652637,
Pz,29.21125819427725,69.68797149596158,74.21991981763682,173.090945771522,323.78931931594775,
T8,9.571567209700111,84.116480277429,51.795215735121864,172.4138608863795,388.91767594822795,
AF4,104.61721147759876,21.521974913929153,4.856845611123415,6.478065947371609,29.300978416627718,
AF3,111.40507551658268,32.78178346025592,6.061288539268637,8.448817490913077,37.43882913115216,
T7,14.378043014423062,68.72546867474426,18.626807202938387,58.577762832783925,125.69945549652637,
Pz,29.21125819427725,69.68797149596158,74.21991981763682,173.090945771522,323.78931931594775,
T8,9.571567209700111,84.116480277429,51.795215735121864,172.4138608863795,388.91767594822795,
AF4,104.61721147759876,21.521974913929153,4.856845611123415,6.478065947371609,29.300978416627718,
AF3,111.40507551658268,32.78178346025592,6.061288539268637,8.448817490913077,37.43882913115216,
T7,14.378043014423062,68.72546867474426,18.626807202938387,58.577762832783925,125.69945549652637,
Pz,29.21125819427725,69.68797149596158,74.21991981763682,173.090945771522,323.78931931594775,
T8,9.571567209700111,84.116480277429,51.795215735121864,172.4138608863795,388.91767594822795,
AF4,104.61721147759876,21.521974913929153,4.856845611123415,6.478065947371609,29.300978416627718,
AF3,111.40507551658268,32.78178346025592,6.061288539268637,8.448817490913077,37.43882913115216,
T7,14.378043014423062,68.72546867474426,18.626807202938387,58.577762832783925,125.69945549652637,
Pz,29.21125819427725,69.68797149596158,74.21991981763682,173.090945771522,323.78931931594775,
T8,9.571567209700111,84.116480277429,51.795215735121864,172.4138608863795,388.91767594822795,
AF4,104.61721147759876,21.521974913929153,4.856845611123415,6.478065947371609,29.300978416627718,
AF3,111.40507551658268,32.78178346025592,6.061288539268637,8.448817490913077,37.43882913115216,
T7,14.378043014423062,68.72546867474426,18.626807202938387,58.577762832783925,125.69945549652637,
Pz,29.21125819427725,69.68797149596158,74.21991981763682,173.090945771522,323.78931931594775,
T8,9.571567209700111,84.116480277429,51.795215735121864,172.4138608863795,388.91767594822795,
AF4,104.61721147759876,21.521974913929153,4.856845611123415,6.478065947371609,29.300978416627718,
AF3,111.40507551658268,32.78178346025592,6.061288539268637,8.448817490913077,37.43882913115216,
T7,14.378043014423062,68.72546867474426,18.626807202938387,58.577762832783925,125.69945549652637,
Pz,29.21125819427725,69.68797149596158,74.21991981763682,173.090945771522,323.78931931594775,
T8,9.571567209700111,84.116480277429,51.795215735121864,172.4138608863795,388.91767594822795,
AF4,104.61721147759876,21.521974913929153,4.856845611123415,6.478065947371609,29.300978416627718,
AF3,111.40507551658268,32.78178346025592,6.061288539268637,8.448817490913077,37.43882913115216,
T7,14.378043014423062,68.72546867474426,18.626807202938387,58.577762832783925,125.69945549652637,
Pz,29.21125819427725,69.68797149596158,74.21991981763682,173.090945771522,323.78931931594775,
T8,9.571567209700111,84.116480277429,51.795215735121864,172.4138608863795,388.91767594822795,
AF4,104.61721147759876,21.521974913929153,4.856845611123415,6.478065947371609,29.300978416627718,
AF3,111.40507551658268,32.78178346025592,6.061288539268637,8.448817490913077,37.43882913115216,
T7,14.378043014423062,68.72546867474426,18.626807202938387,58.577762832783925,125.69945549652637,
Pz,29.21125819427725,69.68797149596158,74.21991981763682,173.090945771522,323.78931931594775,
T8,9.571567209700111,84.116480277429,51.795215735121864,172.4138608863795,388.91767594822795,
AF4,104.61721147759876,21.521974913929153,4.856845611123415,6.478065947371609,29.300978416627718,
AF3,111.40507551658268,32.78178346025592,6.061288539268637,8.448817490913077,37.43882913115216,
T7,14.378043014423062,68.72546867474426,18.626807202938387,58.577762832783925,125.69945549652637,
Pz,29.21125819427725,69.68797149596158,74.21991981763682,173.090945771522,323.78931931594775,
T8,9.571567209700111,84.116480277429,51.795215735121864,172.4138608863795,388.91767594822795,
AF4,104.61721147759876,21.521974913929153,4.856845611123415,6.478065947371609,29.300978416627718,
AF3,111.40507551658268,32.78178346025592,6.061288539268637,8.448817490913077,37.43882913115216,
T7,14.378043014423062,68.72546867474426,18.626807202938387,58.577762832783925,125.69945549652637,
Pz,29.21125819427725,69.68797149596158,74.21991981763682,173.090945771522,323.78931931594775,
T8,9.571567209700111,84.116480277429,51.795215735121864,172.4138608863795,388.91767594822795,
AF4,104.61721147759876,21.521974913929153,4.856845611123415,6.478065947371609,29.300978416627718,
AF3,111.40507551658268,32.78178346025592,6.061288539268637,8.448817490913077,37.43882913115216,
T7,14.378043014423062,68.72546867474426,18.626807202938387,58.577762832783925,125.69945549652637,
Pz,29.21125819427725,69.68797149596158,74.21991981763682,173.090945771522,323.78931931594775,
T8,9.571567209700111,84.116480277429,51.795215735121864,172.4138608863795,388.91767594822795,
AF4,104.61721147759876,21.521974913929153,4.856845611123415,6.478065947371609,29.300978416627718,
AF3,111.40507551658268,32.78178346025592,6.061288539268637,8.448817490913077,37.43882913115216,
T7,14.378043014423062,68.72546867474426,18.626807202938387,58.577762832783925,125.69945549652637,
Pz,29.21125819427725,69.68797149596158,74.21991981763682,173.090945771522,323.78931931594775,
T8,9.571567209700111,84.116480277429,51.795215735121864,172.4138608863795,388.91767594822795,
AF4,104.61721147759876,21.521974913929153,4.856845611123415,6.478065947371609,29.300978416627718,
AF3,111.40507551658268,32.78178346025592,6.061288539268637,8.448817490913077,37.43882913115216,
T7,14.378043014423062,68.72546867474426,18.626807202938387,58.577762832783925,125.69945549652637,
Pz,29.21125819427725,69.68797149596158,74.21991981763682,173.090945771522,323.78931931594775,
T8,9.571567209700111,84.116480277429,51.795215735121864,172.4138608863795,388.91767594822795,
AF4,104.61721147759876,21.521974913929153,4.856845611123415,6.478065947371609,29.300978416627718,
AF3,111.40507551658268,32.78178346025592,6.061288539268637,8.448817490913077,37.43882913115216,
T7,14.378043014423062,68.72546867474426,18.626807202938387,58.577762832783925,125.69945549652637,
Pz,29.21125819427725,69.68797149596158,74.21991981763682,173.090945771522,323.78931931594775,
T8,9.571567209700111,84.116480277429,51.795215735121864,172.4138608863795,388.91767594822795,
AF4,104.61721147759876,21.521974913929153,4.856845611123415,6.478065947371609,29.300978416627718,
AF3,111.40507551658268,32.78178346025592,6.061288539268637,8.448817490913077,37.43882913115216,
T7,14.378043014423062,68.72546867474426,18.626807202938387,58.577762832783925,125.69945549652637,
Pz,29.21125819427725,69.68797149596158,74.21991981763682,173.090945771522,323.78931931594775,
T8,9.571567209700111,84.116480277429,51.795215735121864,172.4138608863795,388.91767594822795,
AF4,104.61721147759876,21.521974913929153,4.856845611123415,6.478065947371609,29.300978416627718,
AF3,111.40507551658268,32.78178346025592,6.061288539268637,8.448817490913077,37.43882913115216,
T7,14.378043014423062,68.72546867474426,18.626807202938387,58.577762832783925,125.69945549652637,
Pz,29.21125819427725,69.68797149596158,74.21991981763682,173.090945771522,323.78931931594775,
T8,9.571567209700111,84.116480277429,51.795215735121864,172.4138608863795,388.91767594822795,
AF4,104.61721147759876,21.521974913929153,4.856845611123415,6.478065947371609,29.300978416627718,
AF3,111.40507551658268,32.78178346025592,6.061288539268637,8.448817490913077,37.43882913115216,
T7,14.378043014423062,68.72546867474426,18.626807202938387,58.577762832783925,125.69945549652637,
Pz,29.21125819427725,69.68797149596158,74.21991981763682,173.090945771522,323.78931931594775,
T8,9.571567209700111,84.116480277429,51.795215735121864,172.4138608863795,388.91767594822795,
AF4,104.61721147759876,21.521974913929153,4.856845611123415,6.478065947371609,29.300978416627718,
AF3,111.40507551658268,32.78178346025592,6.061288539268637,8.448817490913077,37.43882913115216,
T7,14.378043014423062,68.72546867474426,18.626807202938387,58.577762832783925,125.69945549652637,
Pz,29.21125819427725,69.68797149596158,74.21991981763682,173.090945771522,323.78931931594775,
T8,9.571567209700111,84.116480277429,51.795215735121864,172.4138608863795,388.91767594822795,
AF4,104.61721147759876,21.521974913929153,4.856845611123415,6.478065947371609,29.300978416627718,
AF3,111.40507551658268,32.78178346025592,6.061288539268637,8.448817490913077,37.43882913115216,
T7,14.378043014423062,68.72546867474426,18.626807202938387,58.577762832783925,125.69945549652637,
Pz,29.21125819427725,69.68797149596158,74.21991981763682,173.090945771522,323.78931931594775,
T8,9.571567209700111,84.116480277429,51.795215735121864,172.4138608863795,388.91767594822795,
AF4,104.61721147759876,21.521974913929153,4.856845611123415,6.478065947371609,29.300978416627718,
AF3,111.40507551658268,32.78178346025592,6.061288539268637,8.448817490913077,37.43882913115216,
T7,14.378043014423062,68.72546867474426,18.626807202938387,58.577762832783925,125.69945549652637,
Pz,29.21125819427725,69.68797149596158,74.21991981763682,173.090945771522,323.78931931594775,
T8,9.571567209700111,84.116480277429,51.795215735121864,172.4138608863795,388.91767594822795,
AF4,104.61721147759876,21.521974913929153,4.856845611123415,6.478065947371609,29.300978416627718,
AF3,111.40507551658268,32.78178346025592,6.061288539268637,8.448817490913077,37.43882913115216,
T7,14.378043014423062,68.72546867474426,18.626807202938387,58.577762832783925,125.69945549652637,
Pz,29.21125819427725,69.68797149596158,74.21991981763682,173.090945771522,323.78931931594775,
T8,9.571567209700111,84.116480277429,51.795215735121864,172.4138608863795,388.91767594822795,
AF4,104.61721147759876,21.521974913929153,4.856845611123415,6.478065947371609,29.300978416627718,
AF3,111.40507551658268,32.78178346025592,6.061288539268637,8.448817490913077,37.43882913115216,
T7,14.378043014423062,68.72546867474426,18.626807202938387,58.577762832783925,125.69945549652637,
Pz,29.21125819427725,69.68797149596158,74.21991981763682,173.090945771522,323.78931931594775,
T8,9.571567209700111,84.116480277429,51.795215735121864,172.4138608863795,388.91767594822795,
AF4,104.61721147759876,21.521974913929153,4.856845611123415,6.478065947371609,29.300978416627718,
AF3,111.40507551658268,32.78178346025592,6.061288539268637,8.448817490913077,37.43882913115216,
T7,14.378043014423062,68.72546867474426,18.626807202938387,58.577762832783925,125.69945549652637,
Pz,29.21125819427725,69.68797149596158,74.21991981763682,173.090945771522,323.78931931594775,
T8,9.571567209700111,84.116480277429,51.795215735121864,172.4138608863795,388.91767594822795,
AF4,104.61721147759876,21.521974913929153,4.856845611123415,6.478065947371609,29.300978416627718,
AF3,111.40507551658268,32.78178346025592,6.061288539268637,8.448817490913077,37.43882913115216,
T7,14.378043014423062,68.72546867474426,18.626807202938387,58.577762832783925,125.69945549652637,
Pz,29.21125819427725,69.68797149596158,74.21991981763682,173.090945771522,323.78931931594775,
T8,9.571567209700111,84.116480277429,51.795215735121864,172.4138608863795,388.91767594822795,
AF4,104.61721147759876,21.521974913929153,4.856845611123415,6.478065947371609,29.300978416627718,
AF3,111.40507551658268,32.78178346025592,6.061288539268637,8.448817490913077,37.43882913115216,
T7,14.378043014423062,68.72546867474426,18.626807202938387,58.577762832783925,125.69945549652637,
Pz,29.21125819427725,69.68797149596158,74.21991981763682,173.090945771522,323.78931931594775,
T8,9.571567209700111,84.116480277429,51.795215735121864,172.4138608863795,388.91767594822795,
AF4,104.61721147759876,21.521974913929153,4.856845611123415,6.478065947371609,29.300978416627718,
AF3,111.40507551658268,32.78178346025592,6.061288539268637,8.448817490913077,37.43882913115216,
T7,14.378043014423062,68.72546867474426,18.626807202938387,58.577762832783925,125.69945549652637,
Pz,29.21125819427725,69.68797149596158,74.21991981763682,173.090945771522,323.78931931594775,
T8,9.571567209700111,84.116480277429,51.795215735121864,172.4138608863795,388.91767594822795,
AF4,104.61721147759876,21.521974913929153,4.856845611123415,6.478065947371609,29.300978416627718,
AF3,111.40507551658268,32.78178346025592,6.061288539268637,8.448817490913077,37.43882913115216,
T7,14.378043014423062,68.72546867474426,18.626807202938387,58.577762832783925,125.69945549652637,
Pz,29.21125819427725,69.68797149596158,74.21991981763682,173.090945771522,323.78931931594775,
T8,9.571567209700111,84.116480277429,51.795215735121864,172.4138608863795,388.91767594822795,
AF4,104.61721147759876,21.521974913929153,4.856845611123415,6.478065947371609,29.300978416627718,
AF3,111.40507551658268,32.78178346025592,6.061288539268637,8.448817490913077,37.43882913115216,
T7,14.378043014423062,68.72546867474426,18.626807202938387,58.577762832783925,125.69945549652637,
Pz,29.21125819427725,69.68797149596158,74.21991981763682,173.090945771522,323.78931931594775,
T8,9.571567209700111,84.116480277429,51.795215735121864,172.4138608863795,388.91767594822795,
AF4,104.61721147759876,21.521974913929153,4.856845611123415,6.478065947371609,29.300978416627718,
AF3,111.40507551658268,32.78178346025592,6.061288539268637,8.448817490913077,37.43882913115216,
T7,14.378043014423062,68.72546867474426,18.626807202938387,58.577762832783925,125.69945549652637,
Pz,29.21125819427725,69.68797149596158,74.21991981763682,173.090945771522,323.78931931594775,
T8,9.571567209700111,84.116480277429,51.795215735121864,172.4138608863795,388.91767594822795,
AF4,104.61721147759876,21.521974913929153,4.856845611123415,6.478065947371609,29.300978416627718,
AF3,111.40507551658268,32.78178346025592,6.061288539268637,8.448817490913077,37.43882913115216,
T7,14.378043014423062,68.72546867474426,18.626807202938387,58.577762832783925,125.69945549652637,
Pz,29.21125819427725,69.68797149596158,74.21991981763682,173.090945771522,323.78931931594775,
T8,9.571567209700111,84.116480277429,51.795215735121864,172.4138608863795,388.91767594822795,
AF4,104.61721147759876,21.521974913929153,4.856845611123415,6.478065947371609,29.300978416627718,
AF3,111.40507551658268,32.78178346025592,6.061288539268637,8.448817490913077,37.43882913115216,
T7,14.378043014423062,68.72546867474426,18.626807202938387,58.577762832783925,125.69945549652637,
Pz,29.21125819427725,69.68797149596158,74.21991981763682,173.090945771522,323.78931931594775,
T8,9.571567209700111,84.116480277429,51.795215735121864,172.4138608863795,388.91767594822795,
AF4,104.61721147759876,21.521974913929153,4.856845611123415,6.478065947371609,29.300978416627718,
AF3,111.40507551658268,32.78178346025592,6.061288539268637,8.448817490913077,37.43882913115216,
T7,14.378043014423062,68.72546867474426,18.626807202938387,58.577762832783925,125.69945549652637,
Pz,29.21125819427725,69.68797149596158,74.21991981763682,173.090945771522,323.78931931594775,
T8,9.571567209700111,84.116480277429,51.795215735121864,172.4138608863795,388.91767594822795,
AF4,104.61721147759876,21.521974913929153,4.856845611123415,6.478065947371609,29.300978416627718,
AF3,111.40507551658268,32.78178346025592,6.061288539268637,8.448817490913077,37.43882913115216,
T7,14.378043014423062,68.72546867474426,18.626807202938387,58.577762832783925,125.69945549652637,
Pz,29.21125819427725,69.68797149596158,74.21991981763682,173.090945771522,323.78931931594775,
T8,9.571567209700111,84.116480277429,51.795215735121864,172.4138608863795,388.91767594822795,
AF4,104.61721147759876,21.521974913929153,4.856845611123415,6.478065947371609,29.300978416627718,
AF3,111.40507551658268,32.78178346025592,6.061288539268637,8.448817490913077,37.43882913115216,
T7,14.378043014423062,68.72546867474426,18.626807202938387,58.577762832783925,125.69945549652637,
Pz,29.21125819427725,69.68797149596158,74.21991981763682,173.090945771522,323.78931931594775,
T8,9.571567209700111,84.116480277429,51.795215735121864,172.4138608863795,388.91767594822795,
AF4,104.61721147759876,21.521974913929153,4.856845611123415,6.478065947371609,29.300978416627718,
AF3,111.40507551658268,32.78178346025592,6.061288539268637,8.448817490913077,37.43882913115216,
T7,14.378043014423062,68.72546867474426,18.626807202938387,58.577762832783925,125.69945549652637,
Pz,29.21125819427725,69.68797149596158,74.21991981763682,173.090945771522,323.78931931594775,
T8,9.571567209700111,84.116480277429,51.795215735121864,172.4138608863795,388.91767594822795,
AF4,104.61721147759876,21.521974913929153,4.856845611123415,6.478065947371609,29.300978416627718,
AF3,111.40507551658268,32.78178346025592,6.061288539268637,8.448817490913077,37.43882913115216,
T7,14.378043014423062,68.72546867474426,18.626807202938387,58.577762832783925,125.69945549652637,
Pz,29.21125819427725,69.68797149596158,74.21991981763682,173.090945771522,323.78931931594775,
T8,9.571567209700111,84.116480277429,51.795215735121864,172.4138608863795,388.91767594822795,
AF4,104.61721147759876,21.521974913929153,4.856845611123415,6.478065947371609,29.300978416627718,
AF3,111.40507551658268,32.78178346025592,6.061288539268637,8.448817490913077,37.43882913115216,
T7,14.378043014423062,68.72546867474426,18.626807202938387,58.577762832783925,125.69945549652637,
Pz,29.21125819427725,69.68797149596158,74.21991981763682,173.090945771522,323.78931931594775,
T8,9.571567209700111,84.116480277429,51.795215735121864,172.4138608863795,388.91767594822795,
AF4,104.61721147759876,21.521974913929153,4.856845611123415,6.478065947371609,29.300978416627718,
AF3,111.40507551658268,32.78178346025592,6.061288539268637,8.448817490913077,37.43882913115216,
T7,14.378043014423062,68.72546867474426,18.626807202938387,58.577762832783925,125.69945549652637,
Pz,29.21125819427725,69.68797149596158,74.21991981763682,173.090945771522,323.78931931594775,
T8,9.571567209700111,84.116480277429,51.795215735121864,172.4138608863795,388.91767594822795,
AF4,104.61721147759876,21.521974913929153,4.856845611123415,6.478065947371609,29.300978416627718,
AF3,111.40507551658268,32.78178346025592,6.061288539268637,8.448817490913077,37.43882913115216,
T7,14.378043014423062,68.72546867474426,18.626807202938387,58.577762832783925,125.69945549652637,
Pz,29.21125819427725,69.68797149596158,74.21991981763682,173.090945771522,323.78931931594775,
T8,9.571567209700111,84.116480277429,51.795215735121864,172.4138608863795,388.91767594822795,
AF4,104.61721147759876,21.521974913929153,4.856845611123415,6.478065947371609,29.300978416627718,
AF3,111.40507551658268,32.78178346025592,6.061288539268637,8.448817490913077,37.43882913115216,
T7,14.378043014423062,68.72546867474426,18.626807202938387,58.577762832783925,125.69945549652637,
Pz,29.21125819427725,69.68797149596158,74.21991981763682,173.090945771522,323.78931931594775,
T8,9.571567209700111,84.116480277429,51.795215735121864,172.4138608863795,388.91767594822795,
AF4,104.61721147759876,21.521974913929153,4.856845611123415,6.478065947371609,29.300978416627718,
AF3,111.40507551658268,32.78178346025592,6.061288539268637,8.448817490913077,37.43882913115216,
T7,14.378043014423062,68.72546867474426,18.626807202938387,58.577762832783925,125.69945549652637,
Pz,29.21125819427725,69.68797149596158,74.21991981763682,173.090945771522,323.78931931594775,
T8,9.571567209700111,84.116480277429,51.795215735121864,172.4138608863795,388.91767594822795,
AF4,104.61721147759876,21.521974913929153,4.856845611123415,6.478065947371609,29.300978416627718,
AF3,111.40507551658268,32.78178346025592,6.061288539268637,8.448817490913077,37.43882913115216,
T7,14.378043014423062,68.72546867474426,18.626807202938387,58.577762832783925,125.69945549652637,
Pz,29.21125819427725,69.68797149596158,74.21991981763682,173.090945771522,323.78931931594775,
T8,9.571567209700111,84.116480277429,51.795215735121864,172.4138608863795,388.91767594822795,
AF4,104.61721147759876,21.521974913929153,4.856845611123415,6.478065947371609,29.300978416627718,
AF3,111.40507551658268,32.78178346025592,6.061288539268637,8.448817490913077,37.43882913115216,
T7,14.378043014423062,68.72546867474426,18.626807202938387,58.577762832783925,125.69945549652637,
Pz,29.21125819427725,69.68797149596158,74.21991981763682,173.090945771522,323.78931931594775,
T8,9.571567209700111,84.116480277429,51.795215735121864,172.4138608863795,388.91767594822795,
AF4,104.61721147759876,21.521974913929153,4.856845611123415,6.478065947371609,29.300978416627718,
AF3,111.40507551658268,32.78178346025592,6.061288539268637,8.448817490913077,37.43882913115216,
T7,14.378043014423062,68.72546867474426,18.626807202938387,58.577762832783925,125.69945549652637,
Pz,29.21125819427725,69.68797149596158,74.21991981763682,173.090945771522,323.78931931594775,
T8,9.571567209700111,84.116480277429,51.795215735121864,172.4138608863795,388.91767594822795,
AF4,104.61721147759876,21.521974913929153,4.856845611123415,6.478065947371609,29.300978416627718,
AF3,111.40507551658268,32.78178346025592,6.061288539268637,8.448817490913077,37.43882913115216,
T7,14.378043014423062,68.72546867474426,18.626807202938387,58.577762832783925,125.69945549652637,
Pz,29.21125819427725,69.68797149596158,74.21991981763682,173.090945771522,323.78931931594775,
T8,9.571567209700111,84.116480277429,51.795215735121864,172.4138608863795,388.91767594822795,
AF4,104.61721147759876,21.521974913929153,4.856845611123415,6.478065947371609,29.300978416627718,
AF3,111.40507551658268,32.78178346025592,6.061288539268637,8.448817490913077,37.43882913115216,
T7,14.378043014423062,68.72546867474426,18.626807202938387,58.577762832783925,125.69945549652637,
Pz,29.21125819427725,69.68797149596158,74.21991981763682,173.090945771522,323.78931931594775,
T8,9.571567209700111,84.116480277429,51.795215735121864,172.4138608863795,388.91767594822795,
AF4,104.61721147759876,21.521974913929153,4.856845611123415,6.478065947371609,29.300978416627718,
AF3,111.40507551658268,32.78178346025592,6.061288539268637,8.448817490913077,37.43882913115216,
T7,14.378043014423062,68.72546867474426,18.626807202938387,58.577762832783925,125.69945549652637,
Pz,29.21125819427725,69.68797149596158,74.21991981763682,173.090945771522,323.78931931594775,
T8,9.571567209700111,84.116480277429,51.795215735121864,172.4138608863795,388.91767594822795,
AF4,104.61721147759876,21.521974913929153,4.856845611123415,6.478065947371609,29.300978416627718,
AF3,111.40507551658268,32.78178346025592,6.061288539268637,8.448817490913077,37.43882913115216,
T7,14.378043014423062,68.72546867474426,18.626807202938387,58.577762832783925,125.69945549652637,
Pz,29.21125819427725,69.68797149596158,74.21991981763682,173.090945771522,323.78931931594775,
T8,9.571567209700111,84.116480277429,51.795215735121864,172.4138608863795,388.91767594822795,
AF4,104.61721147759876,21.521974913929153,4.856845611123415,6.478065947371609,29.300978416627718,
AF3,111.40507551658268,32.78178346025592,6.061288539268637,8.448817490913077,37.43882913115216,
T7,14.378043014423062,68.72546867474426,18.626807202938387,58.577762832783925,125.69945549652637,
Pz,29.21125819427725,69.68797149596158,74.21991981763682,173.090945771522,323.78931931594775,
T8,9.571567209700111,84.116480277429,51.795215735121864,172.4138608863795,388.91767594822795,
AF4,104.61721147759876,21.521974913929153,4.856845611123415,6.478065947371609,29.300978416627718,
AF3,111.40507551658268,32.78178346025592,6.061288539268637,8.448817490913077,37.43882913115216,
T7,14.378043014423062,68.72546867474426,18.626807202938387,58.577762832783925,125.69945549652637,
Pz,29.21125819427725,69.68797149596158,74.21991981763682,173.090945771522,323.78931931594775,
T8,9.571567209700111,84.116480277429,51.795215735121864,172.4138608863795,388.91767594822795,
AF4,104.61721147759876,21.521974913929153,4.856845611123415,6.478065947371609,29.300978416627718,
AF3,111.40507551658268,32.78178346025592,6.061288539268637,8.448817490913077,37.43882913115216,
T7,14.378043014423062,68.72546867474426,18.626807202938387,58.577762832783925,125.69945549652637,
Pz,29.21125819427725,69.68797149596158,74.21991981763682,173.090945771522,323.78931931594775,
T8,9.571567209700111,84.116480277429,51.795215735121864,172.4138608863795,388.91767594822795,
AF4,104.61721147759876,21.521974913929153,4.856845611123415,6.478065947371609,29.300978416627718,
AF3,111.40507551658268,32.78178346025592,6.061288539268637,8.448817490913077,37.43882913115216,
T7,14.378043014423062,68.72546867474426,18.626807202938387,58.577762832783925,125.69945549652637,
Pz,29.21125819427725,69.68797149596158,74.21991981763682,173.090945771522,323.78931931594775,
T8,9.571567209700111,84.116480277429,51.795215735121864,172.4138608863795,388.91767594822795,
AF4,104.61721147759876,21.521974913929153,4.856845611123415,6.478065947371609,29.300978416627718,
AF3,111.40507551658268,32.78178346025592,6.061288539268637,8.448817490913077,37.43882913115216,
T7,14.378043014423062,68.72546867474426,18.626807202938387,58.577762832783925,125.69945549652637,
Pz,29.21125819427725,69.68797149596158,74.21991981763682,173.090945771522,323.78931931594775,
T8,9.571567209700111,84.116480277429,51.795215735121864,172.4138608863795,388.91767594822795,
AF4,104.61721147759876,21.521974913929153,4.856845611123415,6.478065947371609,29.300978416627718,
AF3,111.40507551658268,32.78178346025592,6.061288539268637,8.448817490913077,37.43882913115216,
T7,14.378043014423062,68.72546867474426,18.626807202938387,58.577762832783925,125.69945549652637,
Pz,29.21125819427725,69.68797149596158,74.21991981763682,173.090945771522,323.78931931594775,
T8,9.571567209700111,84.116480277429,51.795215735121864,172.4138608863795,388.91767594822795,
AF4,104.61721147759876,21.521974913929153,4.856845611123415,6.478065947371609,29.300978416627718,
AF3,111.40507551658268,32.78178346025592,6.061288539268637,8.448817490913077,37.43882913115216,
T7,14.378043014423062,68.72546867474426,18.626807202938387,58.577762832783925,125.69945549652637,
Pz,29.21125819427725,69.68797149596158,74.21991981763682,173.090945771522,323.78931931594775,
T8,9.571567209700111,84.116480277429,51.795215735121864,172.4138608863795,388.91767594822795,
AF4,104.61721147759876,21.521974913929153,4.856845611123415,6.478065947371609,29.300978416627718,
AF3,111.40507551658268,32.78178346025592,6.061288539268637,8.448817490913077,37.43882913115216,
T7,14.378043014423062,68.72546867474426,18.626807202938387,58.577762832783925,125.69945549652637,
Pz,29.21125819427725,69.68797149596158,74.21991981763682,173.090945771522,323.78931931594775,
T8,9.571567209700111,84.116480277429,51.795215735121864,172.4138608863795,388.91767594822795,
AF4,104.61721147759876,21.521974913929153,4.856845611123415,6.478065947371609,29.300978416627718,
AF3,111.40507551658268,32.78178346025592,6.061288539268637,8.448817490913077,37.43882913115216,
T7,14.378043014423062,68.72546867474426,18.626807202938387,58.577762832783925,125.69945549652637,
Pz,29.21125819427725,69.68797149596158,74.21991981763682,173.090945771522,323.78931931594775,
T8,9.571567209700111,84.116480277429,51.795215735121864,172.4138608863795,388.91767594822795,
AF4,104.61721147759876,21.521974913929153,4.856845611123415,6.478065947371609,29.300978416627718,
AF3,111.40507551658268,32.78178346025592,6.061288539268637,8.448817490913077,37.43882913115216,
T7,14.378043014423062,68.72546867474426,18.626807202938387,58.577762832783925,125.69945549652637,
Pz,29.21125819427725,69.68797149596158,74.21991981763682,173.090945771522,323.78931931594775,
T8,9.571567209700111,84.116480277429,51.795215735121864,172.4138608863795,388.91767594822795,
AF4,104.61721147759876,21.521974913929153,4.856845611123415,6.478065947371609,29.300978416627718,
AF3,111.40507551658268,32.78178346025592,6.061288539268637,8.448817490913077,37.43882913115216,
T7,14.378043014423062,68.72546867474426,18.626807202938387,58.577762832783925,125.69945549652637,
Pz,29.21125819427725,69.68797149596158,74.21991981763682,173.090945771522,323.78931931594775,
T8,9.571567209700111,84.116480277429,51.795215735121864,172.4138608863795,388.91767594822795,
AF4,104.61721147759876,21.521974913929153,4.856845611123415,6.478065947371609,29.300978416627718,
AF3,111.40507551658268,32.78178346025592,6.061288539268637,8.448817490913077,37.43882913115216,
T7,14.378043014423062,68.72546867474426,18.626807202938387,58.577762832783925,125.69945549652637,
Pz,29.21125819427725,69.68797149596158,74.21991981763682,173.090945771522,323.78931931594775,
T8,9.571567209700111,84.116480277429,51.795215735121864,172.4138608863795,388.91767594822795,
AF4,104.61721147759876,21.521974913929153,4.856845611123415,6.478065947371609,29.300978416627718,
AF3,111.40507551658268,32.78178346025592,6.061288539268637,8.448817490913077,37.43882913115216,
T7,14.378043014423062,68.72546867474426,18.626807202938387,58.577762832783925,125.69945549652637,
Pz,29.21125819427725,69.68797149596158,74.21991981763682,173.090945771522,323.78931931594775,
T8,9.571567209700111,84.116480277429,51.795215735121864,172.4138608863795,388.91767594822795,
AF4,104.61721147759876,21.521974913929153,4.856845611123415,6.478065947371609,29.300978416627718,
AF3,111.40507551658268,32.78178346025592,6.061288539268637,8.448817490913077,37.43882913115216,
T7,14.378043014423062,68.72546867474426,18.626807202938387,58.577762832783925,125.69945549652637,
Pz,29.21125819427725,69.68797149596158,74.21991981763682,173.090945771522,323.78931931594775,
T8,9.571567209700111,84.116480277429,51.795215735121864,172.4138608863795,388.91767594822795,
AF4,104.61721147759876,21.521974913929153,4.856845611123415,6.478065947371609,29.300978416627718,
AF3,111.40507551658268,32.78178346025592,6.061288539268637,8.448817490913077,37.43882913115216,
T7,14.378043014423062,68.72546867474426,18.626807202938387,58.577762832783925,125.69945549652637,
Pz,29.21125819427725,69.68797149596158,74.21991981763682,173.090945771522,323.78931931594775,
T8,9.571567209700111,84.116480277429,51.795215735121864,172.4138608863795,388.91767594822795,
AF4,104.61721147759876,21.521974913929153,4.856845611123415,6.478065947371609,29.300978416627718,
AF3,111.40507551658268,32.78178346025592,6.061288539268637,8.448817490913077,37.43882913115216,
T7,14.378043014423062,68.72546867474426,18.626807202938387,58.577762832783925,125.69945549652637,
Pz,29.21125819427725,69.68797149596158,74.21991981763682,173.090945771522,323.78931931594775,
T8,9.571567209700111,84.116480277429,51.795215735121864,172.4138608863795,388.91767594822795,
AF4,104.61721147759876,21.521974913929153,4.856845611123415,6.478065947371609,29.300978416627718,
AF3,111.40507551658268,32.78178346025592,6.061288539268637,8.448817490913077,37.43882913115216,
T7,14.378043014423062,68.72546867474426,18.626807202938387,58.577762832783925,125.69945549652637,
Pz,29.21125819427725,69.68797149596158,74.21991981763682,173.090945771522,323.78931931594775,
T8,9.571567209700111,84.116480277429,51.795215735121864,172.4138608863795,388.91767594822795,
AF4,104.61721147759876,21.521974913929153,4.856845611123415,6.478065947371609,29.300978416627718,
AF3,111.40507551658268,32.78178346025592,6.061288539268637,8.448817490913077,37.43882913115216,
T7,14.378043014423062,68.72546867474426,18.626807202938387,58.577762832783925,125.69945549652637,
Pz,29.21125819427725,69.68797149596158,74.21991981763682,173.090945771522,323.78931931594775,
T8,9.571567209700111,84.116480277429,51.795215735121864,172.4138608863795,388.91767594822795,
AF4,104.61721147759876,21.521974913929153,4.856845611123415,6.478065947371609,29.300978416627718,
AF3,111.40507551658268,32.78178346025592,6.061288539268637,8.448817490913077,37.43882913115216,
T7,14.378043014423062,68.72546867474426,18.626807202938387,58.577762832783925,125.69945549652637,
Pz,29.21125819427725,69.68797149596158,74.21991981763682,173.090945771522,323.78931931594775,
T8,9.571567209700111,84.116480277429,51.795215735121864,172.4138608863795,388.91767594822795,
AF4,104.61721147759876,21.521974913929153,4.856845611123415,6.478065947371609,29.300978416627718,
AF3,111.40507551658268,32.78178346025592,6.061288539268637,8.448817490913077,37.43882913115216,
T7,14.378043014423062,68.72546867474426,18.626807202938387,58.577762832783925,125.69945549652637,
Pz,29.21125819427725,69.68797149596158,74.21991981763682,173.090945771522,323.78931931594775,
T8,9.571567209700111,84.116480277429,51.795215735121864,172.4138608863795,388.91767594822795,
AF4,104.61721147759876,21.521974913929153,4.856845611123415,6.478065947371609,29.300978416627718,
AF3,111.40507551658268,32.78178346025592,6.061288539268637,8.448817490913077,37.43882913115216,
T7,14.378043014423062,68.72546867474426,18.626807202938387,58.577762832783925,125.69945549652637,
Pz,29.21125819427725,69.68797149596158,74.21991981763682,173.090945771522,323.78931931594775,
T8,9.571567209700111,84.116480277429,51.795215735121864,172.4138608863795,388.91767594822795,
AF4,104.61721147759876,21.521974913929153,4.856845611123415,6.478065947371609,29.300978416627718,
AF3,111.40507551658268,32.78178346025592,6.061288539268637,8.448817490913077,37.43882913115216,
T7,14.378043014423062,68.72546867474426,18.626807202938387,58.577762832783925,125.69945549652637,
Pz,29.21125819427725,69.68797149596158,74.21991981763682,173.090945771522,323.78931931594775,
T8,9.571567209700111,84.116480277429,51.795215735121864,172.4138608863795,388.91767594822795,
AF4,104.61721147759876,21.521974913929153,4.856845611123415,6.478065947371609,29.300978416627718,
AF3,111.40507551658268,32.78178346025592,6.061288539268637,8.448817490913077,37.43882913115216,
T7,14.378043014423062,68.72546867474426,18.626807202938387,58.577762832783925,125.69945549652637,
Pz,29.21125819427725,69.68797149596158,74.21991981763682,173.090945771522,323.78931931594775,
T8,9.571567209700111,84.116480277429,51.795215735121864,172.4138608863795,388.91767594822795,
AF4,104.61721147759876,21.521974913929153,4.856845611123415,6.478065947371609,29.300978416627718,
AF3,111.40507551658268,32.78178346025592,6.061288539268637,8.448817490913077,37.43882913115216,
T7,14.378043014423062,68.72546867474426,18.626807202938387,58.577762832783925,125.69945549652637,
Pz,29.21125819427725,69.68797149596158,74.21991981763682,173.090945771522,323.78931931594775,
T8,9.571567209700111,84.116480277429,51.795215735121864,172.4138608863795,388.91767594822795,
AF4,163.7322595532495,23.666995737457373,1.2248916322265726,10.989427354556753,28.61421010179526,
AF3,126.94127821328821,19.88114695386845,14.276410456969456,6.941749978646715,39.27270456760707,
T7,21.549354724270653,71.41757221305292,24.234404162321496,47.51098588452154,179.4903380486074,
Pz,40.625933308454805,103.37522164904617,96.8833696913854,135.32925699484557,399.9901530826333,
T8,41.29992828845539,86.92110269292041,83.00142077867889,109.96179691963073,348.1323156893806,
AF4,163.7322595532495,23.666995737457373,1.2248916322265726,10.989427354556753,28.61421010179526,
AF3,126.94127821328821,19.88114695386845,14.276410456969456,6.941749978646715,39.27270456760707,
T7,21.549354724270653,71.41757221305292,24.234404162321496,47.51098588452154,179.4903380486074,
Pz,40.625933308454805,103.37522164904617,96.8833696913854,135.32925699484557,399.9901530826333,
T8,41.29992828845539,86.92110269292041,83.00142077867889,109.96179691963073,348.1323156893806,
AF4,163.7322595532495,23.666995737457373,1.2248916322265726,10.989427354556753,28.61421010179526,
AF3,126.94127821328821,19.88114695386845,14.276410456969456,6.941749978646715,39.27270456760707,
T7,21.549354724270653,71.41757221305292,24.234404162321496,47.51098588452154,179.4903380486074,
Pz,40.625933308454805,103.37522164904617,96.8833696913854,135.32925699484557,399.9901530826333,
T8,41.29992828845539,86.92110269292041,83.00142077867889,109.96179691963073,348.1323156893806,
AF4,163.7322595532495,23.666995737457373,1.2248916322265726,10.989427354556753,28.61421010179526,
AF3,126.94127821328821,19.88114695386845,14.276410456969456,6.941749978646715,39.27270456760707,
T7,21.549354724270653,71.41757221305292,24.234404162321496,47.51098588452154,179.4903380486074,
Pz,40.625933308454805,103.37522164904617,96.8833696913854,135.32925699484557,399.9901530826333,
T8,41.29992828845539,86.92110269292041,83.00142077867889,109.96179691963073,348.1323156893806,
AF4,163.7322595532495,23.666995737457373,1.2248916322265726,10.989427354556753,28.61421010179526,
AF3,126.94127821328821,19.88114695386845,14.276410456969456,6.941749978646715,39.27270456760707,
T7,21.549354724270653,71.41757221305292,24.234404162321496,47.51098588452154,179.4903380486074,
Pz,40.625933308454805,103.37522164904617,96.8833696913854,135.32925699484557,399.9901530826333,
T8,41.29992828845539,86.92110269292041,83.00142077867889,109.96179691963073,348.1323156893806,
AF4,163.7322595532495,23.666995737457373,1.2248916322265726,10.989427354556753,28.61421010179526,
AF3,126.94127821328821,19.88114695386845,14.276410456969456,6.941749978646715,39.27270456760707,
T7,21.549354724270653,71.41757221305292,24.234404162321496,47.51098588452154,179.4903380486074,
Pz,40.625933308454805,103.37522164904617,96.8833696913854,135.32925699484557,399.9901530826333,
T8,41.29992828845539,86.92110269292041,83.00142077867889,109.96179691963073,348.1323156893806,
AF4,163.7322595532495,23.666995737457373,1.2248916322265726,10.989427354556753,28.61421010179526,
AF3,126.94127821328821,19.88114695386845,14.276410456969456,6.941749978646715,39.27270456760707,
T7,21.549354724270653,71.41757221305292,24.234404162321496,47.51098588452154,179.4903380486074,
Pz,40.625933308454805,103.37522164904617,96.8833696913854,135.32925699484557,399.9901530826333,
T8,41.29992828845539,86.92110269292041,83.00142077867889,109.96179691963073,348.1323156893806,
AF4,163.7322595532495,23.666995737457373,1.2248916322265726,10.989427354556753,28.61421010179526,
AF3,126.94127821328821,19.88114695386845,14.276410456969456,6.941749978646715,39.27270456760707,
T7,21.549354724270653,71.41757221305292,24.234404162321496,47.51098588452154,179.4903380486074,
Pz,40.625933308454805,103.37522164904617,96.8833696913854,135.32925699484557,399.9901530826333,
T8,41.29992828845539,86.92110269292041,83.00142077867889,109.96179691963073,348.1323156893806,
AF4,163.7322595532495,23.666995737457373,1.2248916322265726,10.989427354556753,28.61421010179526,
AF3,126.94127821328821,19.88114695386845,14.276410456969456,6.941749978646715,39.27270456760707,
T7,21.549354724270653,71.41757221305292,24.234404162321496,47.51098588452154,179.4903380486074,
Pz,40.625933308454805,103.37522164904617,96.8833696913854,135.32925699484557,399.9901530826333,
T8,41.29992828845539,86.92110269292041,83.00142077867889,109.96179691963073,348.1323156893806,
AF4,163.7322595532495,23.666995737457373,1.2248916322265726,10.989427354556753,28.61421010179526,
AF3,126.94127821328821,19.88114695386845,14.276410456969456,6.941749978646715,39.27270456760707,
T7,21.549354724270653,71.41757221305292,24.234404162321496,47.51098588452154,179.4903380486074,
Pz,40.625933308454805,103.37522164904617,96.8833696913854,135.32925699484557,399.9901530826333,
T8,41.29992828845539,86.92110269292041,83.00142077867889,109.96179691963073,348.1323156893806,
AF4,163.7322595532495,23.666995737457373,1.2248916322265726,10.989427354556753,28.61421010179526,
AF3,126.94127821328821,19.88114695386845,14.276410456969456,6.941749978646715,39.27270456760707,
T7,21.549354724270653,71.41757221305292,24.234404162321496,47.51098588452154,179.4903380486074,
Pz,40.625933308454805,103.37522164904617,96.8833696913854,135.32925699484557,399.9901530826333,
T8,41.29992828845539,86.92110269292041,83.00142077867889,109.96179691963073,348.1323156893806,
AF4,163.7322595532495,23.666995737457373,1.2248916322265726,10.989427354556753,28.61421010179526,
AF3,126.94127821328821,19.88114695386845,14.276410456969456,6.941749978646715,39.27270456760707,
T7,21.549354724270653,71.41757221305292,24.234404162321496,47.51098588452154,179.4903380486074,
Pz,40.625933308454805,103.37522164904617,96.8833696913854,135.32925699484557,399.9901530826333,
T8,41.29992828845539,86.92110269292041,83.00142077867889,109.96179691963073,348.1323156893806,
AF4,163.7322595532495,23.666995737457373,1.2248916322265726,10.989427354556753,28.61421010179526,
AF3,126.94127821328821,19.88114695386845,14.276410456969456,6.941749978646715,39.27270456760707,
T7,21.549354724270653,71.41757221305292,24.234404162321496,47.51098588452154,179.4903380486074,
Pz,40.625933308454805,103.37522164904617,96.8833696913854,135.32925699484557,399.9901530826333,
T8,41.29992828845539,86.92110269292041,83.00142077867889,109.96179691963073,348.1323156893806,
AF4,163.7322595532495,23.666995737457373,1.2248916322265726,10.989427354556753,28.61421010179526,
AF3,126.94127821328821,19.88114695386845,14.276410456969456,6.941749978646715,39.27270456760707,
T7,21.549354724270653,71.41757221305292,24.234404162321496,47.51098588452154,179.4903380486074,
Pz,40.625933308454805,103.37522164904617,96.8833696913854,135.32925699484557,399.9901530826333,
T8,41.29992828845539,86.92110269292041,83.00142077867889,109.96179691963073,348.1323156893806,
AF4,163.7322595532495,23.666995737457373,1.2248916322265726,10.989427354556753,28.61421010179526,
AF3,126.94127821328821,19.88114695386845,14.276410456969456,6.941749978646715,39.27270456760707,
T7,21.549354724270653,71.41757221305292,24.234404162321496,47.51098588452154,179.4903380486074,
Pz,40.625933308454805,103.37522164904617,96.8833696913854,135.32925699484557,399.9901530826333,
T8,41.29992828845539,86.92110269292041,83.00142077867889,109.96179691963073,348.1323156893806,
AF4,163.7322595532495,23.666995737457373,1.2248916322265726,10.989427354556753,28.61421010179526,
AF3,126.94127821328821,19.88114695386845,14.276410456969456,6.941749978646715,39.27270456760707,
T7,21.549354724270653,71.41757221305292,24.234404162321496,47.51098588452154,179.4903380486074,
Pz,40.625933308454805,103.37522164904617,96.8833696913854,135.32925699484557,399.9901530826333,
T8,41.29992828845539,86.92110269292041,83.00142077867889,109.96179691963073,348.1323156893806,
AF4,163.7322595532495,23.666995737457373,1.2248916322265726,10.989427354556753,28.61421010179526,
AF3,126.94127821328821,19.88114695386845,14.276410456969456,6.941749978646715,39.27270456760707,
T7,21.549354724270653,71.41757221305292,24.234404162321496,47.51098588452154,179.4903380486074,
Pz,40.625933308454805,103.37522164904617,96.8833696913854,135.32925699484557,399.9901530826333,
T8,41.29992828845539,86.92110269292041,83.00142077867889,109.96179691963073,348.1323156893806,
AF4,163.7322595532495,23.666995737457373,1.2248916322265726,10.989427354556753,28.61421010179526,
AF3,126.94127821328821,19.88114695386845,14.276410456969456,6.941749978646715,39.27270456760707,
T7,21.549354724270653,71.41757221305292,24.234404162321496,47.51098588452154,179.4903380486074,
