Channel , Theta ,Alpha ,Low beta ,High beta , Gamma 
AF3,9.247129154093686,12.828661783977509,24.605878821889174,28.161542354743897,12.731254652994568,
T7,80.2870095529766,65.55623639964763,194.22788963781232,107.22180798395755,45.08635104741086,
Pz,97.34251222690558,145.77807779070395,422.8040552842199,189.54078670189747,113.1356557176411,
T8,98.12616607963177,208.8286678584778,140.83659818411314,194.19144652476697,162.01087393736438,
AF4,9.20428162252586,20.498480940713286,16.706897772885483,34.37308618058381,9.996071379089193,
AF3,9.247129154093686,12.828661783977509,24.605878821889174,28.161542354743897,12.731254652994568,
T7,80.2870095529766,65.55623639964763,194.22788963781232,107.22180798395755,45.08635104741086,
Pz,97.34251222690558,145.77807779070395,422.8040552842199,189.54078670189747,113.1356557176411,
T8,98.12616607963177,208.8286678584778,140.83659818411314,194.19144652476697,162.01087393736438,
AF4,9.20428162252586,20.498480940713286,16.706897772885483,34.37308618058381,9.996071379089193,
AF3,9.247129154093686,12.828661783977509,24.605878821889174,28.161542354743897,12.731254652994568,
T7,80.2870095529766,65.55623639964763,194.22788963781232,107.22180798395755,45.08635104741086,
Pz,97.34251222690558,145.77807779070395,422.8040552842199,189.54078670189747,113.1356557176411,
T8,98.12616607963177,208.8286678584778,140.83659818411314,194.19144652476697,162.01087393736438,
AF4,9.20428162252586,20.498480940713286,16.706897772885483,34.37308618058381,9.996071379089193,
AF3,9.247129154093686,12.828661783977509,24.605878821889174,28.161542354743897,12.731254652994568,
T7,80.2870095529766,65.55623639964763,194.22788963781232,107.22180798395755,45.08635104741086,
Pz,97.34251222690558,145.77807779070395,422.8040552842199,189.54078670189747,113.1356557176411,
T8,98.12616607963177,208.8286678584778,140.83659818411314,194.19144652476697,162.01087393736438,
AF4,9.20428162252586,20.498480940713286,16.706897772885483,34.37308618058381,9.996071379089193,
AF3,9.247129154093686,12.828661783977509,24.605878821889174,28.161542354743897,12.731254652994568,
T7,80.2870095529766,65.55623639964763,194.22788963781232,107.22180798395755,45.08635104741086,
Pz,97.34251222690558,145.77807779070395,422.8040552842199,189.54078670189747,113.1356557176411,
T8,98.12616607963177,208.8286678584778,140.83659818411314,194.19144652476697,162.01087393736438,
AF4,9.20428162252586,20.498480940713286,16.706897772885483,34.37308618058381,9.996071379089193,
AF3,9.247129154093686,12.828661783977509,24.605878821889174,28.161542354743897,12.731254652994568,
T7,80.2870095529766,65.55623639964763,194.22788963781232,107.22180798395755,45.08635104741086,
Pz,97.34251222690558,145.77807779070395,422.8040552842199,189.54078670189747,113.1356557176411,
T8,98.12616607963177,208.8286678584778,140.83659818411314,194.19144652476697,162.01087393736438,
AF4,9.20428162252586,20.498480940713286,16.706897772885483,34.37308618058381,9.996071379089193,
AF3,9.247129154093686,12.828661783977509,24.605878821889174,28.161542354743897,12.731254652994568,
T7,80.2870095529766,65.55623639964763,194.22788963781232,107.22180798395755,45.08635104741086,
Pz,97.34251222690558,145.77807779070395,422.8040552842199,189.54078670189747,113.1356557176411,
T8,98.12616607963177,208.8286678584778,140.83659818411314,194.19144652476697,162.01087393736438,
AF4,9.20428162252586,20.498480940713286,16.706897772885483,34.37308618058381,9.996071379089193,
AF3,9.247129154093686,12.828661783977509,24.605878821889174,28.161542354743897,12.731254652994568,
T7,80.2870095529766,65.55623639964763,194.22788963781232,107.22180798395755,45.08635104741086,
Pz,97.34251222690558,145.77807779070395,422.8040552842199,189.54078670189747,113.1356557176411,
T8,98.12616607963177,208.8286678584778,140.83659818411314,194.19144652476697,162.01087393736438,
AF4,9.20428162252586,20.498480940713286,16.706897772885483,34.37308618058381,9.996071379089193,
AF3,9.247129154093686,12.828661783977509,24.605878821889174,28.161542354743897,12.731254652994568,
T7,80.2870095529766,65.55623639964763,194.22788963781232,107.22180798395755,45.08635104741086,
Pz,97.34251222690558,145.77807779070395,422.8040552842199,189.54078670189747,113.1356557176411,
T8,98.12616607963177,208.8286678584778,140.83659818411314,194.19144652476697,162.01087393736438,
AF4,9.20428162252586,20.498480940713286,16.706897772885483,34.37308618058381,9.996071379089193,
AF3,9.247129154093686,12.828661783977509,24.605878821889174,28.161542354743897,12.731254652994568,
T7,80.2870095529766,65.55623639964763,194.22788963781232,107.22180798395755,45.08635104741086,
Pz,97.34251222690558,145.77807779070395,422.8040552842199,189.54078670189747,113.1356557176411,
T8,98.12616607963177,208.8286678584778,140.83659818411314,194.19144652476697,162.01087393736438,
AF4,9.20428162252586,20.498480940713286,16.706897772885483,34.37308618058381,9.996071379089193,
AF3,9.247129154093686,12.828661783977509,24.605878821889174,28.161542354743897,12.731254652994568,
T7,80.2870095529766,65.55623639964763,194.22788963781232,107.22180798395755,45.08635104741086,
Pz,97.34251222690558,145.77807779070395,422.8040552842199,189.54078670189747,113.1356557176411,
T8,98.12616607963177,208.8286678584778,140.83659818411314,194.19144652476697,162.01087393736438,
AF4,9.20428162252586,20.498480940713286,16.706897772885483,34.37308618058381,9.996071379089193,
AF3,9.247129154093686,12.828661783977509,24.605878821889174,28.161542354743897,12.731254652994568,
T7,80.2870095529766,65.55623639964763,194.22788963781232,107.22180798395755,45.08635104741086,
Pz,97.34251222690558,145.77807779070395,422.8040552842199,189.54078670189747,113.1356557176411,
T8,98.12616607963177,208.8286678584778,140.83659818411314,194.19144652476697,162.01087393736438,
AF4,9.20428162252586,20.498480940713286,16.706897772885483,34.37308618058381,9.996071379089193,
AF3,9.247129154093686,12.828661783977509,24.605878821889174,28.161542354743897,12.731254652994568,
T7,80.2870095529766,65.55623639964763,194.22788963781232,107.22180798395755,45.08635104741086,
Pz,97.34251222690558,145.77807779070395,422.8040552842199,189.54078670189747,113.1356557176411,
T8,98.12616607963177,208.8286678584778,140.83659818411314,194.19144652476697,162.01087393736438,
AF4,9.20428162252586,20.498480940713286,16.706897772885483,34.37308618058381,9.996071379089193,
AF3,9.247129154093686,12.828661783977509,24.605878821889174,28.161542354743897,12.731254652994568,
T7,80.2870095529766,65.55623639964763,194.22788963781232,107.22180798395755,45.08635104741086,
Pz,97.34251222690558,145.77807779070395,422.8040552842199,189.54078670189747,113.1356557176411,
T8,98.12616607963177,208.8286678584778,140.83659818411314,194.19144652476697,162.01087393736438,
AF4,9.20428162252586,20.498480940713286,16.706897772885483,34.37308618058381,9.996071379089193,
AF3,9.247129154093686,12.828661783977509,24.605878821889174,28.161542354743897,12.731254652994568,
T7,80.2870095529766,65.55623639964763,194.22788963781232,107.22180798395755,45.08635104741086,
Pz,97.34251222690558,145.77807779070395,422.8040552842199,189.54078670189747,113.1356557176411,
T8,98.12616607963177,208.8286678584778,140.83659818411314,194.19144652476697,162.01087393736438,
AF4,9.20428162252586,20.498480940713286,16.706897772885483,34.37308618058381,9.996071379089193,
AF3,9.247129154093686,12.828661783977509,24.605878821889174,28.161542354743897,12.731254652994568,
T7,80.2870095529766,65.55623639964763,194.22788963781232,107.22180798395755,45.08635104741086,
Pz,97.34251222690558,145.77807779070395,422.8040552842199,189.54078670189747,113.1356557176411,
T8,98.12616607963177,208.8286678584778,140.83659818411314,194.19144652476697,162.01087393736438,
AF4,9.20428162252586,20.498480940713286,16.706897772885483,34.37308618058381,9.996071379089193,
AF3,9.247129154093686,12.828661783977509,24.605878821889174,28.161542354743897,12.731254652994568,
T7,80.2870095529766,65.55623639964763,194.22788963781232,107.22180798395755,45.08635104741086,
Pz,97.34251222690558,145.77807779070395,422.8040552842199,189.54078670189747,113.1356557176411,
T8,98.12616607963177,208.8286678584778,140.83659818411314,194.19144652476697,162.01087393736438,
AF4,9.20428162252586,20.498480940713286,16.706897772885483,34.37308618058381,9.996071379089193,
AF3,9.247129154093686,12.828661783977509,24.605878821889174,28.161542354743897,12.731254652994568,
T7,80.2870095529766,65.55623639964763,194.22788963781232,107.22180798395755,45.08635104741086,
Pz,97.34251222690558,145.77807779070395,422.8040552842199,189.54078670189747,113.1356557176411,
T8,98.12616607963177,208.8286678584778,140.83659818411314,194.19144652476697,162.01087393736438,
AF4,9.20428162252586,20.498480940713286,16.706897772885483,34.37308618058381,9.996071379089193,
AF3,9.247129154093686,12.828661783977509,24.605878821889174,28.161542354743897,12.731254652994568,
T7,80.2870095529766,65.55623639964763,194.22788963781232,107.22180798395755,45.08635104741086,
Pz,97.34251222690558,145.77807779070395,422.8040552842199,189.54078670189747,113.1356557176411,
T8,98.12616607963177,208.8286678584778,140.83659818411314,194.19144652476697,162.01087393736438,
AF4,9.20428162252586,20.498480940713286,16.706897772885483,34.37308618058381,9.996071379089193,
AF3,9.247129154093686,12.828661783977509,24.605878821889174,28.161542354743897,12.731254652994568,
T7,80.2870095529766,65.55623639964763,194.22788963781232,107.22180798395755,45.08635104741086,
Pz,97.34251222690558,145.77807779070395,422.8040552842199,189.54078670189747,113.1356557176411,
T8,98.12616607963177,208.8286678584778,140.83659818411314,194.19144652476697,162.01087393736438,
AF4,9.20428162252586,20.498480940713286,16.706897772885483,34.37308618058381,9.996071379089193,
AF3,9.247129154093686,12.828661783977509,24.605878821889174,28.161542354743897,12.731254652994568,
T7,80.2870095529766,65.55623639964763,194.22788963781232,107.22180798395755,45.08635104741086,
Pz,97.34251222690558,145.77807779070395,422.8040552842199,189.54078670189747,113.1356557176411,
T8,98.12616607963177,208.8286678584778,140.83659818411314,194.19144652476697,162.01087393736438,
AF4,9.20428162252586,20.498480940713286,16.706897772885483,34.37308618058381,9.996071379089193,
AF3,9.247129154093686,12.828661783977509,24.605878821889174,28.161542354743897,12.731254652994568,
T7,80.2870095529766,65.55623639964763,194.22788963781232,107.22180798395755,45.08635104741086,
Pz,97.34251222690558,145.77807779070395,422.8040552842199,189.54078670189747,113.1356557176411,
T8,98.12616607963177,208.8286678584778,140.83659818411314,194.19144652476697,162.01087393736438,
AF4,9.20428162252586,20.498480940713286,16.706897772885483,34.37308618058381,9.996071379089193,
AF3,9.247129154093686,12.828661783977509,24.605878821889174,28.161542354743897,12.731254652994568,
T7,80.2870095529766,65.55623639964763,194.22788963781232,107.22180798395755,45.08635104741086,
Pz,97.34251222690558,145.77807779070395,422.8040552842199,189.54078670189747,113.1356557176411,
T8,98.12616607963177,208.8286678584778,140.83659818411314,194.19144652476697,162.01087393736438,
AF4,9.20428162252586,20.498480940713286,16.706897772885483,34.37308618058381,9.996071379089193,
AF3,9.247129154093686,12.828661783977509,24.605878821889174,28.161542354743897,12.731254652994568,
T7,80.2870095529766,65.55623639964763,194.22788963781232,107.22180798395755,45.08635104741086,
Pz,97.34251222690558,145.77807779070395,422.8040552842199,189.54078670189747,113.1356557176411,
T8,98.12616607963177,208.8286678584778,140.83659818411314,194.19144652476697,162.01087393736438,
AF4,9.20428162252586,20.498480940713286,16.706897772885483,34.37308618058381,9.996071379089193,
AF3,9.247129154093686,12.828661783977509,24.605878821889174,28.161542354743897,12.731254652994568,
T7,80.2870095529766,65.55623639964763,194.22788963781232,107.22180798395755,45.08635104741086,
Pz,97.34251222690558,145.77807779070395,422.8040552842199,189.54078670189747,113.1356557176411,
T8,98.12616607963177,208.8286678584778,140.83659818411314,194.19144652476697,162.01087393736438,
AF4,9.20428162252586,20.498480940713286,16.706897772885483,34.37308618058381,9.996071379089193,
AF3,9.247129154093686,12.828661783977509,24.605878821889174,28.161542354743897,12.731254652994568,
T7,80.2870095529766,65.55623639964763,194.22788963781232,107.22180798395755,45.08635104741086,
Pz,97.34251222690558,145.77807779070395,422.8040552842199,189.54078670189747,113.1356557176411,
T8,98.12616607963177,208.8286678584778,140.83659818411314,194.19144652476697,162.01087393736438,
AF4,9.20428162252586,20.498480940713286,16.706897772885483,34.37308618058381,9.996071379089193,
AF3,9.247129154093686,12.828661783977509,24.605878821889174,28.161542354743897,12.731254652994568,
T7,80.2870095529766,65.55623639964763,194.22788963781232,107.22180798395755,45.08635104741086,
Pz,97.34251222690558,145.77807779070395,422.8040552842199,189.54078670189747,113.1356557176411,
T8,98.12616607963177,208.8286678584778,140.83659818411314,194.19144652476697,162.01087393736438,
AF4,9.20428162252586,20.498480940713286,16.706897772885483,34.37308618058381,9.996071379089193,
AF3,9.247129154093686,12.828661783977509,24.605878821889174,28.161542354743897,12.731254652994568,
T7,80.2870095529766,65.55623639964763,194.22788963781232,107.22180798395755,45.08635104741086,
Pz,97.34251222690558,145.77807779070395,422.8040552842199,189.54078670189747,113.1356557176411,
T8,98.12616607963177,208.8286678584778,140.83659818411314,194.19144652476697,162.01087393736438,
AF4,9.20428162252586,20.498480940713286,16.706897772885483,34.37308618058381,9.996071379089193,
AF3,9.247129154093686,12.828661783977509,24.605878821889174,28.161542354743897,12.731254652994568,
T7,80.2870095529766,65.55623639964763,194.22788963781232,107.22180798395755,45.08635104741086,
Pz,97.34251222690558,145.77807779070395,422.8040552842199,189.54078670189747,113.1356557176411,
T8,98.12616607963177,208.8286678584778,140.83659818411314,194.19144652476697,162.01087393736438,
AF4,9.20428162252586,20.498480940713286,16.706897772885483,34.37308618058381,9.996071379089193,
AF3,9.247129154093686,12.828661783977509,24.605878821889174,28.161542354743897,12.731254652994568,
T7,80.2870095529766,65.55623639964763,194.22788963781232,107.22180798395755,45.08635104741086,
Pz,97.34251222690558,145.77807779070395,422.8040552842199,189.54078670189747,113.1356557176411,
T8,98.12616607963177,208.8286678584778,140.83659818411314,194.19144652476697,162.01087393736438,
AF4,9.20428162252586,20.498480940713286,16.706897772885483,34.37308618058381,9.996071379089193,
AF3,9.247129154093686,12.828661783977509,24.605878821889174,28.161542354743897,12.731254652994568,
T7,80.2870095529766,65.55623639964763,194.22788963781232,107.22180798395755,45.08635104741086,
Pz,97.34251222690558,145.77807779070395,422.8040552842199,189.54078670189747,113.1356557176411,
T8,98.12616607963177,208.8286678584778,140.83659818411314,194.19144652476697,162.01087393736438,
AF4,9.20428162252586,20.498480940713286,16.706897772885483,34.37308618058381,9.996071379089193,
AF3,9.247129154093686,12.828661783977509,24.605878821889174,28.161542354743897,12.731254652994568,
T7,80.2870095529766,65.55623639964763,194.22788963781232,107.22180798395755,45.08635104741086,
Pz,97.34251222690558,145.77807779070395,422.8040552842199,189.54078670189747,113.1356557176411,
T8,98.12616607963177,208.8286678584778,140.83659818411314,194.19144652476697,162.01087393736438,
AF4,9.20428162252586,20.498480940713286,16.706897772885483,34.37308618058381,9.996071379089193,
AF3,9.247129154093686,12.828661783977509,24.605878821889174,28.161542354743897,12.731254652994568,
T7,80.2870095529766,65.55623639964763,194.22788963781232,107.22180798395755,45.08635104741086,
Pz,97.34251222690558,145.77807779070395,422.8040552842199,189.54078670189747,113.1356557176411,
T8,98.12616607963177,208.8286678584778,140.83659818411314,194.19144652476697,162.01087393736438,
AF4,9.20428162252586,20.498480940713286,16.706897772885483,34.37308618058381,9.996071379089193,
AF3,9.247129154093686,12.828661783977509,24.605878821889174,28.161542354743897,12.731254652994568,
T7,80.2870095529766,65.55623639964763,194.22788963781232,107.22180798395755,45.08635104741086,
Pz,97.34251222690558,145.77807779070395,422.8040552842199,189.54078670189747,113.1356557176411,
T8,98.12616607963177,208.8286678584778,140.83659818411314,194.19144652476697,162.01087393736438,
AF4,9.20428162252586,20.498480940713286,16.706897772885483,34.37308618058381,9.996071379089193,
AF3,9.247129154093686,12.828661783977509,24.605878821889174,28.161542354743897,12.731254652994568,
T7,80.2870095529766,65.55623639964763,194.22788963781232,107.22180798395755,45.08635104741086,
Pz,97.34251222690558,145.77807779070395,422.8040552842199,189.54078670189747,113.1356557176411,
T8,98.12616607963177,208.8286678584778,140.83659818411314,194.19144652476697,162.01087393736438,
AF4,9.20428162252586,20.498480940713286,16.706897772885483,34.37308618058381,9.996071379089193,
AF3,9.247129154093686,12.828661783977509,24.605878821889174,28.161542354743897,12.731254652994568,
T7,80.2870095529766,65.55623639964763,194.22788963781232,107.22180798395755,45.08635104741086,
Pz,97.34251222690558,145.77807779070395,422.8040552842199,189.54078670189747,113.1356557176411,
T8,98.12616607963177,208.8286678584778,140.83659818411314,194.19144652476697,162.01087393736438,
AF4,9.20428162252586,20.498480940713286,16.706897772885483,34.37308618058381,9.996071379089193,
AF3,9.247129154093686,12.828661783977509,24.605878821889174,28.161542354743897,12.731254652994568,
T7,80.2870095529766,65.55623639964763,194.22788963781232,107.22180798395755,45.08635104741086,
Pz,97.34251222690558,145.77807779070395,422.8040552842199,189.54078670189747,113.1356557176411,
T8,98.12616607963177,208.8286678584778,140.83659818411314,194.19144652476697,162.01087393736438,
AF4,9.20428162252586,20.498480940713286,16.706897772885483,34.37308618058381,9.996071379089193,
AF3,9.247129154093686,12.828661783977509,24.605878821889174,28.161542354743897,12.731254652994568,
T7,80.2870095529766,65.55623639964763,194.22788963781232,107.22180798395755,45.08635104741086,
Pz,97.34251222690558,145.77807779070395,422.8040552842199,189.54078670189747,113.1356557176411,
T8,98.12616607963177,208.8286678584778,140.83659818411314,194.19144652476697,162.01087393736438,
AF4,9.20428162252586,20.498480940713286,16.706897772885483,34.37308618058381,9.996071379089193,
AF3,9.247129154093686,12.828661783977509,24.605878821889174,28.161542354743897,12.731254652994568,
T7,80.2870095529766,65.55623639964763,194.22788963781232,107.22180798395755,45.08635104741086,
Pz,97.34251222690558,145.77807779070395,422.8040552842199,189.54078670189747,113.1356557176411,
T8,98.12616607963177,208.8286678584778,140.83659818411314,194.19144652476697,162.01087393736438,
AF4,9.20428162252586,20.498480940713286,16.706897772885483,34.37308618058381,9.996071379089193,
AF3,9.247129154093686,12.828661783977509,24.605878821889174,28.161542354743897,12.731254652994568,
T7,80.2870095529766,65.55623639964763,194.22788963781232,107.22180798395755,45.08635104741086,
Pz,97.34251222690558,145.77807779070395,422.8040552842199,189.54078670189747,113.1356557176411,
T8,98.12616607963177,208.8286678584778,140.83659818411314,194.19144652476697,162.01087393736438,
AF4,9.20428162252586,20.498480940713286,16.706897772885483,34.37308618058381,9.996071379089193,
AF3,9.247129154093686,12.828661783977509,24.605878821889174,28.161542354743897,12.731254652994568,
T7,80.2870095529766,65.55623639964763,194.22788963781232,107.22180798395755,45.08635104741086,
Pz,114.29416941891506,181.336320671307,139.8676337320543,188.10181889585957,94.95715128031797,
T8,236.42578487224512,212.66910505580677,175.83898365990598,236.60969542186103,116.6327102889464,
AF4,14.54750953090328,27.511112913173267,12.783255462241017,28.832962756390422,10.206979150484637,
AF3,6.105899475828933,11.287250067159103,20.32937468264216,32.3159242301517,14.073793035574823,
T7,112.04341924763133,124.01865040967066,123.56104304146655,97.72966905819192,52.907865365618704,
Pz,114.29416941891506,181.336320671307,139.8676337320543,188.10181889585957,94.95715128031797,
T8,236.42578487224512,212.66910505580677,175.83898365990598,236.60969542186103,116.6327102889464,
AF4,14.54750953090328,27.511112913173267,12.783255462241017,28.832962756390422,10.206979150484637,
AF3,6.105899475828933,11.287250067159103,20.32937468264216,32.3159242301517,14.073793035574823,
T7,112.04341924763133,124.01865040967066,123.56104304146655,97.72966905819192,52.907865365618704,
Pz,114.29416941891506,181.336320671307,139.8676337320543,188.10181889585957,94.95715128031797,
T8,236.42578487224512,212.66910505580677,175.83898365990598,236.60969542186103,116.6327102889464,
AF4,14.54750953090328,27.511112913173267,12.783255462241017,28.832962756390422,10.206979150484637,
AF3,6.105899475828933,11.287250067159103,20.32937468264216,32.3159242301517,14.073793035574823,
T7,112.04341924763133,124.01865040967066,123.56104304146655,97.72966905819192,52.907865365618704,
Pz,114.29416941891506,181.336320671307,139.8676337320543,188.10181889585957,94.95715128031797,
T8,236.42578487224512,212.66910505580677,175.83898365990598,236.60969542186103,116.6327102889464,
AF4,14.54750953090328,27.511112913173267,12.783255462241017,28.832962756390422,10.206979150484637,
AF3,6.105899475828933,11.287250067159103,20.32937468264216,32.3159242301517,14.073793035574823,
T7,112.04341924763133,124.01865040967066,123.56104304146655,97.72966905819192,52.907865365618704,
Pz,114.29416941891506,181.336320671307,139.8676337320543,188.10181889585957,94.95715128031797,
T8,236.42578487224512,212.66910505580677,175.83898365990598,236.60969542186103,116.6327102889464,
AF4,14.54750953090328,27.511112913173267,12.783255462241017,28.832962756390422,10.206979150484637,
AF3,6.105899475828933,11.287250067159103,20.32937468264216,32.3159242301517,14.073793035574823,
T7,112.04341924763133,124.01865040967066,123.56104304146655,97.72966905819192,52.907865365618704,
Pz,114.29416941891506,181.336320671307,139.8676337320543,188.10181889585957,94.95715128031797,
T8,236.42578487224512,212.66910505580677,175.83898365990598,236.60969542186103,116.6327102889464,
AF4,14.54750953090328,27.511112913173267,12.783255462241017,28.832962756390422,10.206979150484637,
AF3,6.105899475828933,11.287250067159103,20.32937468264216,32.3159242301517,14.073793035574823,
T7,112.04341924763133,124.01865040967066,123.56104304146655,97.72966905819192,52.907865365618704,
Pz,114.29416941891506,181.336320671307,139.8676337320543,188.10181889585957,94.95715128031797,
T8,236.42578487224512,212.66910505580677,175.83898365990598,236.60969542186103,116.6327102889464,
AF4,14.54750953090328,27.511112913173267,12.783255462241017,28.832962756390422,10.206979150484637,
AF3,6.105899475828933,11.287250067159103,20.32937468264216,32.3159242301517,14.073793035574823,
T7,112.04341924763133,124.01865040967066,123.56104304146655,97.72966905819192,52.907865365618704,
Pz,114.29416941891506,181.336320671307,139.8676337320543,188.10181889585957,94.95715128031797,
T8,236.42578487224512,212.66910505580677,175.83898365990598,236.60969542186103,116.6327102889464,
AF4,14.54750953090328,27.511112913173267,12.783255462241017,28.832962756390422,10.206979150484637,
AF3,6.105899475828933,11.287250067159103,20.32937468264216,32.3159242301517,14.073793035574823,
T7,112.04341924763133,124.01865040967066,123.56104304146655,97.72966905819192,52.907865365618704,
Pz,114.29416941891506,181.336320671307,139.8676337320543,188.10181889585957,94.95715128031797,
T8,236.42578487224512,212.66910505580677,175.83898365990598,236.60969542186103,116.6327102889464,
AF4,14.54750953090328,27.511112913173267,12.783255462241017,28.832962756390422,10.206979150484637,
AF3,6.105899475828933,11.287250067159103,20.32937468264216,32.3159242301517,14.073793035574823,
T7,112.04341924763133,124.01865040967066,123.56104304146655,97.72966905819192,52.907865365618704,
Pz,114.29416941891506,181.336320671307,139.8676337320543,188.10181889585957,94.95715128031797,
T8,236.42578487224512,212.66910505580677,175.83898365990598,236.60969542186103,116.6327102889464,
AF4,14.54750953090328,27.511112913173267,12.783255462241017,28.832962756390422,10.206979150484637,
AF3,6.105899475828933,11.287250067159103,20.32937468264216,32.3159242301517,14.073793035574823,
T7,112.04341924763133,124.01865040967066,123.56104304146655,97.72966905819192,52.907865365618704,
Pz,114.29416941891506,181.336320671307,139.8676337320543,188.10181889585957,94.95715128031797,
T8,236.42578487224512,212.66910505580677,175.83898365990598,236.60969542186103,116.6327102889464,
AF4,14.54750953090328,27.511112913173267,12.783255462241017,28.832962756390422,10.206979150484637,
AF3,6.105899475828933,11.287250067159103,20.32937468264216,32.3159242301517,14.073793035574823,
T7,112.04341924763133,124.01865040967066,123.56104304146655,97.72966905819192,52.907865365618704,
Pz,114.29416941891506,181.336320671307,139.8676337320543,188.10181889585957,94.95715128031797,
T8,236.42578487224512,212.66910505580677,175.83898365990598,236.60969542186103,116.6327102889464,
AF4,14.54750953090328,27.511112913173267,12.783255462241017,28.832962756390422,10.206979150484637,
AF3,6.105899475828933,11.287250067159103,20.32937468264216,32.3159242301517,14.073793035574823,
T7,112.04341924763133,124.01865040967066,123.56104304146655,97.72966905819192,52.907865365618704,
Pz,114.29416941891506,181.336320671307,139.8676337320543,188.10181889585957,94.95715128031797,
T8,236.42578487224512,212.66910505580677,175.83898365990598,236.60969542186103,116.6327102889464,
AF4,14.54750953090328,27.511112913173267,12.783255462241017,28.832962756390422,10.206979150484637,
AF3,6.105899475828933,11.287250067159103,20.32937468264216,32.3159242301517,14.073793035574823,
T7,112.04341924763133,124.01865040967066,123.56104304146655,97.72966905819192,52.907865365618704,
Pz,114.29416941891506,181.336320671307,139.8676337320543,188.10181889585957,94.95715128031797,
T8,236.42578487224512,212.66910505580677,175.83898365990598,236.60969542186103,116.6327102889464,
AF4,14.54750953090328,27.511112913173267,12.783255462241017,28.832962756390422,10.206979150484637,
AF3,6.105899475828933,11.287250067159103,20.32937468264216,32.3159242301517,14.073793035574823,
T7,112.04341924763133,124.01865040967066,123.56104304146655,97.72966905819192,52.907865365618704,
Pz,114.29416941891506,181.336320671307,139.8676337320543,188.10181889585957,94.95715128031797,
T8,236.42578487224512,212.66910505580677,175.83898365990598,236.60969542186103,116.6327102889464,
AF4,14.54750953090328,27.511112913173267,12.783255462241017,28.832962756390422,10.206979150484637,
AF3,6.105899475828933,11.287250067159103,20.32937468264216,32.3159242301517,14.073793035574823,
T7,112.04341924763133,124.01865040967066,123.56104304146655,97.72966905819192,52.907865365618704,
Pz,114.29416941891506,181.336320671307,139.8676337320543,188.10181889585957,94.95715128031797,
T8,236.42578487224512,212.66910505580677,175.83898365990598,236.60969542186103,116.6327102889464,
AF4,14.54750953090328,27.511112913173267,12.783255462241017,28.832962756390422,10.206979150484637,
AF3,6.105899475828933,11.287250067159103,20.32937468264216,32.3159242301517,14.073793035574823,
T7,112.04341924763133,124.01865040967066,123.56104304146655,97.72966905819192,52.907865365618704,
Pz,114.29416941891506,181.336320671307,139.8676337320543,188.10181889585957,94.95715128031797,
T8,236.42578487224512,212.66910505580677,175.83898365990598,236.60969542186103,116.6327102889464,
AF4,14.54750953090328,27.511112913173267,12.783255462241017,28.832962756390422,10.206979150484637,
AF3,6.105899475828933,11.287250067159103,20.32937468264216,32.3159242301517,14.073793035574823,
T7,112.04341924763133,124.01865040967066,123.56104304146655,97.72966905819192,52.907865365618704,
Pz,114.29416941891506,181.336320671307,139.8676337320543,188.10181889585957,94.95715128031797,
T8,236.42578487224512,212.66910505580677,175.83898365990598,236.60969542186103,116.6327102889464,
AF4,14.54750953090328,27.511112913173267,12.783255462241017,28.832962756390422,10.206979150484637,
AF3,6.105899475828933,11.287250067159103,20.32937468264216,32.3159242301517,14.073793035574823,
T7,112.04341924763133,124.01865040967066,123.56104304146655,97.72966905819192,52.907865365618704,
Pz,114.29416941891506,181.336320671307,139.8676337320543,188.10181889585957,94.95715128031797,
T8,236.42578487224512,212.66910505580677,175.83898365990598,236.60969542186103,116.6327102889464,
AF4,14.54750953090328,27.511112913173267,12.783255462241017,28.832962756390422,10.206979150484637,
AF3,6.105899475828933,11.287250067159103,20.32937468264216,32.3159242301517,14.073793035574823,
T7,112.04341924763133,124.01865040967066,123.56104304146655,97.72966905819192,52.907865365618704,
Pz,114.29416941891506,181.336320671307,139.8676337320543,188.10181889585957,94.95715128031797,
T8,236.42578487224512,212.66910505580677,175.83898365990598,236.60969542186103,116.6327102889464,
AF4,14.54750953090328,27.511112913173267,12.783255462241017,28.832962756390422,10.206979150484637,
AF3,6.105899475828933,11.287250067159103,20.32937468264216,32.3159242301517,14.073793035574823,
T7,112.04341924763133,124.01865040967066,123.56104304146655,97.72966905819192,52.907865365618704,
Pz,114.29416941891506,181.336320671307,139.8676337320543,188.10181889585957,94.95715128031797,
T8,236.42578487224512,212.66910505580677,175.83898365990598,236.60969542186103,116.6327102889464,
AF4,14.54750953090328,27.511112913173267,12.783255462241017,28.832962756390422,10.206979150484637,
AF3,6.105899475828933,11.287250067159103,20.32937468264216,32.3159242301517,14.073793035574823,
T7,112.04341924763133,124.01865040967066,123.56104304146655,97.72966905819192,52.907865365618704,
Pz,114.29416941891506,181.336320671307,139.8676337320543,188.10181889585957,94.95715128031797,
T8,236.42578487224512,212.66910505580677,175.83898365990598,236.60969542186103,116.6327102889464,
AF4,14.54750953090328,27.511112913173267,12.783255462241017,28.832962756390422,10.206979150484637,
AF3,6.105899475828933,11.287250067159103,20.32937468264216,32.3159242301517,14.073793035574823,
T7,112.04341924763133,124.01865040967066,123.56104304146655,97.72966905819192,52.907865365618704,
Pz,114.29416941891506,181.336320671307,139.8676337320543,188.10181889585957,94.95715128031797,
T8,236.42578487224512,212.66910505580677,175.83898365990598,236.60969542186103,116.6327102889464,
AF4,14.54750953090328,27.511112913173267,12.783255462241017,28.832962756390422,10.206979150484637,
AF3,6.105899475828933,11.287250067159103,20.32937468264216,32.3159242301517,14.073793035574823,
T7,112.04341924763133,124.01865040967066,123.56104304146655,97.72966905819192,52.907865365618704,
Pz,114.29416941891506,181.336320671307,139.8676337320543,188.10181889585957,94.95715128031797,
T8,236.42578487224512,212.66910505580677,175.83898365990598,236.60969542186103,116.6327102889464,
AF4,14.54750953090328,27.511112913173267,12.783255462241017,28.832962756390422,10.206979150484637,
AF3,6.105899475828933,11.287250067159103,20.32937468264216,32.3159242301517,14.073793035574823,
T7,112.04341924763133,124.01865040967066,123.56104304146655,97.72966905819192,52.907865365618704,
Pz,114.29416941891506,181.336320671307,139.8676337320543,188.10181889585957,94.95715128031797,
T8,236.42578487224512,212.66910505580677,175.83898365990598,236.60969542186103,116.6327102889464,
AF4,14.54750953090328,27.511112913173267,12.783255462241017,28.832962756390422,10.206979150484637,
AF3,6.105899475828933,11.287250067159103,20.32937468264216,32.3159242301517,14.073793035574823,
T7,112.04341924763133,124.01865040967066,123.56104304146655,97.72966905819192,52.907865365618704,
Pz,114.29416941891506,181.336320671307,139.8676337320543,188.10181889585957,94.95715128031797,
T8,236.42578487224512,212.66910505580677,175.83898365990598,236.60969542186103,116.6327102889464,
AF4,14.54750953090328,27.511112913173267,12.783255462241017,28.832962756390422,10.206979150484637,
AF3,6.105899475828933,11.287250067159103,20.32937468264216,32.3159242301517,14.073793035574823,
T7,112.04341924763133,124.01865040967066,123.56104304146655,97.72966905819192,52.907865365618704,
Pz,114.29416941891506,181.336320671307,139.8676337320543,188.10181889585957,94.95715128031797,
T8,236.42578487224512,212.66910505580677,175.83898365990598,236.60969542186103,116.6327102889464,
AF4,14.54750953090328,27.511112913173267,12.783255462241017,28.832962756390422,10.206979150484637,
AF3,6.105899475828933,11.287250067159103,20.32937468264216,32.3159242301517,14.073793035574823,
T7,112.04341924763133,124.01865040967066,123.56104304146655,97.72966905819192,52.907865365618704,
Pz,114.29416941891506,181.336320671307,139.8676337320543,188.10181889585957,94.95715128031797,
T8,236.42578487224512,212.66910505580677,175.83898365990598,236.60969542186103,116.6327102889464,
AF4,14.54750953090328,27.511112913173267,12.783255462241017,28.832962756390422,10.206979150484637,
AF3,6.105899475828933,11.287250067159103,20.32937468264216,32.3159242301517,14.073793035574823,
T7,112.04341924763133,124.01865040967066,123.56104304146655,97.72966905819192,52.907865365618704,
Pz,114.29416941891506,181.336320671307,139.8676337320543,188.10181889585957,94.95715128031797,
T8,236.42578487224512,212.66910505580677,175.83898365990598,236.60969542186103,116.6327102889464,
AF4,14.54750953090328,27.511112913173267,12.783255462241017,28.832962756390422,10.206979150484637,
AF3,6.105899475828933,11.287250067159103,20.32937468264216,32.3159242301517,14.073793035574823,
T7,112.04341924763133,124.01865040967066,123.56104304146655,97.72966905819192,52.907865365618704,
Pz,114.29416941891506,181.336320671307,139.8676337320543,188.10181889585957,94.95715128031797,
T8,236.42578487224512,212.66910505580677,175.83898365990598,236.60969542186103,116.6327102889464,
AF4,14.54750953090328,27.511112913173267,12.783255462241017,28.832962756390422,10.206979150484637,
AF3,6.105899475828933,11.287250067159103,20.32937468264216,32.3159242301517,14.073793035574823,
T7,112.04341924763133,124.01865040967066,123.56104304146655,97.72966905819192,52.907865365618704,
Pz,114.29416941891506,181.336320671307,139.8676337320543,188.10181889585957,94.95715128031797,
T8,236.42578487224512,212.66910505580677,175.83898365990598,236.60969542186103,116.6327102889464,
AF4,14.54750953090328,27.511112913173267,12.783255462241017,28.832962756390422,10.206979150484637,
AF3,6.105899475828933,11.287250067159103,20.32937468264216,32.3159242301517,14.073793035574823,
T7,112.04341924763133,124.01865040967066,123.56104304146655,97.72966905819192,52.907865365618704,
Pz,114.29416941891506,181.336320671307,139.8676337320543,188.10181889585957,94.95715128031797,
T8,236.42578487224512,212.66910505580677,175.83898365990598,236.60969542186103,116.6327102889464,
AF4,14.54750953090328,27.511112913173267,12.783255462241017,28.832962756390422,10.206979150484637,
AF3,6.105899475828933,11.287250067159103,20.32937468264216,32.3159242301517,14.073793035574823,
T7,112.04341924763133,124.01865040967066,123.56104304146655,97.72966905819192,52.907865365618704,
Pz,114.29416941891506,181.336320671307,139.8676337320543,188.10181889585957,94.95715128031797,
T8,236.42578487224512,212.66910505580677,175.83898365990598,236.60969542186103,116.6327102889464,
AF4,14.54750953090328,27.511112913173267,12.783255462241017,28.832962756390422,10.206979150484637,
AF3,6.105899475828933,11.287250067159103,20.32937468264216,32.3159242301517,14.073793035574823,
T7,112.04341924763133,124.01865040967066,123.56104304146655,97.72966905819192,52.907865365618704,
Pz,114.29416941891506,181.336320671307,139.8676337320543,188.10181889585957,94.95715128031797,
T8,236.42578487224512,212.66910505580677,175.83898365990598,236.60969542186103,116.6327102889464,
AF4,14.54750953090328,27.511112913173267,12.783255462241017,28.832962756390422,10.206979150484637,
AF3,6.105899475828933,11.287250067159103,20.32937468264216,32.3159242301517,14.073793035574823,
T7,112.04341924763133,124.01865040967066,123.56104304146655,97.72966905819192,52.907865365618704,
Pz,114.29416941891506,181.336320671307,139.8676337320543,188.10181889585957,94.95715128031797,
T8,236.42578487224512,212.66910505580677,175.83898365990598,236.60969542186103,116.6327102889464,
AF4,14.54750953090328,27.511112913173267,12.783255462241017,28.832962756390422,10.206979150484637,
AF3,6.105899475828933,11.287250067159103,20.32937468264216,32.3159242301517,14.073793035574823,
T7,112.04341924763133,124.01865040967066,123.56104304146655,97.72966905819192,52.907865365618704,
Pz,114.29416941891506,181.336320671307,139.8676337320543,188.10181889585957,94.95715128031797,
T8,236.42578487224512,212.66910505580677,175.83898365990598,236.60969542186103,116.6327102889464,
AF4,14.54750953090328,27.511112913173267,12.783255462241017,28.832962756390422,10.206979150484637,
AF3,6.105899475828933,11.287250067159103,20.32937468264216,32.3159242301517,14.073793035574823,
T7,112.04341924763133,124.01865040967066,123.56104304146655,97.72966905819192,52.907865365618704,
Pz,114.29416941891506,181.336320671307,139.8676337320543,188.10181889585957,94.95715128031797,
T8,236.42578487224512,212.66910505580677,175.83898365990598,236.60969542186103,116.6327102889464,
AF4,14.54750953090328,27.511112913173267,12.783255462241017,28.832962756390422,10.206979150484637,
AF3,6.105899475828933,11.287250067159103,20.32937468264216,32.3159242301517,14.073793035574823,
T7,112.04341924763133,124.01865040967066,123.56104304146655,97.72966905819192,52.907865365618704,
Pz,114.29416941891506,181.336320671307,139.8676337320543,188.10181889585957,94.95715128031797,
T8,236.42578487224512,212.66910505580677,175.83898365990598,236.60969542186103,116.6327102889464,
AF4,14.54750953090328,27.511112913173267,12.783255462241017,28.832962756390422,10.206979150484637,
AF3,6.105899475828933,11.287250067159103,20.32937468264216,32.3159242301517,14.073793035574823,
T7,112.04341924763133,124.01865040967066,123.56104304146655,97.72966905819192,52.907865365618704,
Pz,114.29416941891506,181.336320671307,139.8676337320543,188.10181889585957,94.95715128031797,
T8,236.42578487224512,212.66910505580677,175.83898365990598,236.60969542186103,116.6327102889464,
AF4,14.54750953090328,27.511112913173267,12.783255462241017,28.832962756390422,10.206979150484637,
AF3,6.105899475828933,11.287250067159103,20.32937468264216,32.3159242301517,14.073793035574823,
T7,112.04341924763133,124.01865040967066,123.56104304146655,97.72966905819192,52.907865365618704,
Pz,114.29416941891506,181.336320671307,139.8676337320543,188.10181889585957,94.95715128031797,
T8,236.42578487224512,212.66910505580677,175.83898365990598,236.60969542186103,116.6327102889464,
AF4,14.54750953090328,27.511112913173267,12.783255462241017,28.832962756390422,10.206979150484637,
AF3,6.105899475828933,11.287250067159103,20.32937468264216,32.3159242301517,14.073793035574823,
T7,112.04341924763133,124.01865040967066,123.56104304146655,97.72966905819192,52.907865365618704,
Pz,114.29416941891506,181.336320671307,139.8676337320543,188.10181889585957,94.95715128031797,
T8,236.42578487224512,212.66910505580677,175.83898365990598,236.60969542186103,116.6327102889464,
AF4,14.54750953090328,27.511112913173267,12.783255462241017,28.832962756390422,10.206979150484637,
AF3,6.105899475828933,11.287250067159103,20.32937468264216,32.3159242301517,14.073793035574823,
T7,112.04341924763133,124.01865040967066,123.56104304146655,97.72966905819192,52.907865365618704,
Pz,114.29416941891506,181.336320671307,139.8676337320543,188.10181889585957,94.95715128031797,
T8,236.42578487224512,212.66910505580677,175.83898365990598,236.60969542186103,116.6327102889464,
AF4,14.54750953090328,27.511112913173267,12.783255462241017,28.832962756390422,10.206979150484637,
AF3,6.105899475828933,11.287250067159103,20.32937468264216,32.3159242301517,14.073793035574823,
T7,112.04341924763133,124.01865040967066,123.56104304146655,97.72966905819192,52.907865365618704,
Pz,114.29416941891506,181.336320671307,139.8676337320543,188.10181889585957,94.95715128031797,
T8,236.42578487224512,212.66910505580677,175.83898365990598,236.60969542186103,116.6327102889464,
AF4,14.54750953090328,27.511112913173267,12.783255462241017,28.832962756390422,10.206979150484637,
AF3,6.105899475828933,11.287250067159103,20.32937468264216,32.3159242301517,14.073793035574823,
T7,112.04341924763133,124.01865040967066,123.56104304146655,97.72966905819192,52.907865365618704,
Pz,114.29416941891506,181.336320671307,139.8676337320543,188.10181889585957,94.95715128031797,
T8,236.42578487224512,212.66910505580677,175.83898365990598,236.60969542186103,116.6327102889464,
AF4,14.54750953090328,27.511112913173267,12.783255462241017,28.832962756390422,10.206979150484637,
AF3,6.105899475828933,11.287250067159103,20.32937468264216,32.3159242301517,14.073793035574823,
T7,112.04341924763133,124.01865040967066,123.56104304146655,97.72966905819192,52.907865365618704,
Pz,114.29416941891506,181.336320671307,139.8676337320543,188.10181889585957,94.95715128031797,
T8,236.42578487224512,212.66910505580677,175.83898365990598,236.60969542186103,116.6327102889464,
AF4,14.54750953090328,27.511112913173267,12.783255462241017,28.832962756390422,10.206979150484637,
AF3,6.105899475828933,11.287250067159103,20.32937468264216,32.3159242301517,14.073793035574823,
T7,112.04341924763133,124.01865040967066,123.56104304146655,97.72966905819192,52.907865365618704,
Pz,114.29416941891506,181.336320671307,139.8676337320543,188.10181889585957,94.95715128031797,
T8,236.42578487224512,212.66910505580677,175.83898365990598,236.60969542186103,116.6327102889464,
AF4,14.54750953090328,27.511112913173267,12.783255462241017,28.832962756390422,10.206979150484637,
AF3,6.105899475828933,11.287250067159103,20.32937468264216,32.3159242301517,14.073793035574823,
T7,112.04341924763133,124.01865040967066,123.56104304146655,97.72966905819192,52.907865365618704,
Pz,114.29416941891506,181.336320671307,139.8676337320543,188.10181889585957,94.95715128031797,
T8,236.42578487224512,212.66910505580677,175.83898365990598,236.60969542186103,116.6327102889464,
AF4,14.54750953090328,27.511112913173267,12.783255462241017,28.832962756390422,10.206979150484637,
AF3,6.105899475828933,11.287250067159103,20.32937468264216,32.3159242301517,14.073793035574823,
T7,112.04341924763133,124.01865040967066,123.56104304146655,97.72966905819192,52.907865365618704,
Pz,114.29416941891506,181.336320671307,139.8676337320543,188.10181889585957,94.95715128031797,
T8,236.42578487224512,212.66910505580677,175.83898365990598,236.60969542186103,116.6327102889464,
AF4,14.54750953090328,27.511112913173267,12.783255462241017,28.832962756390422,10.206979150484637,
AF3,6.105899475828933,11.287250067159103,20.32937468264216,32.3159242301517,14.073793035574823,
T7,112.04341924763133,124.01865040967066,123.56104304146655,97.72966905819192,52.907865365618704,
Pz,114.29416941891506,181.336320671307,139.8676337320543,188.10181889585957,94.95715128031797,
T8,236.42578487224512,212.66910505580677,175.83898365990598,236.60969542186103,116.6327102889464,
AF4,14.54750953090328,27.511112913173267,12.783255462241017,28.832962756390422,10.206979150484637,
AF3,6.105899475828933,11.287250067159103,20.32937468264216,32.3159242301517,14.073793035574823,
T7,112.04341924763133,124.01865040967066,123.56104304146655,97.72966905819192,52.907865365618704,
Pz,114.29416941891506,181.336320671307,139.8676337320543,188.10181889585957,94.95715128031797,
T8,236.42578487224512,212.66910505580677,175.83898365990598,236.60969542186103,116.6327102889464,
AF4,14.54750953090328,27.511112913173267,12.783255462241017,28.832962756390422,10.206979150484637,
AF3,6.105899475828933,11.287250067159103,20.32937468264216,32.3159242301517,14.073793035574823,
T7,112.04341924763133,124.01865040967066,123.56104304146655,97.72966905819192,52.907865365618704,
Pz,114.29416941891506,181.336320671307,139.8676337320543,188.10181889585957,94.95715128031797,
T8,236.42578487224512,212.66910505580677,175.83898365990598,236.60969542186103,116.6327102889464,
AF4,14.54750953090328,27.511112913173267,12.783255462241017,28.832962756390422,10.206979150484637,
AF3,6.105899475828933,11.287250067159103,20.32937468264216,32.3159242301517,14.073793035574823,
T7,112.04341924763133,124.01865040967066,123.56104304146655,97.72966905819192,52.907865365618704,
Pz,114.29416941891506,181.336320671307,139.8676337320543,188.10181889585957,94.95715128031797,
T8,236.42578487224512,212.66910505580677,175.83898365990598,236.60969542186103,116.6327102889464,
AF4,14.54750953090328,27.511112913173267,12.783255462241017,28.832962756390422,10.206979150484637,
AF3,6.105899475828933,11.287250067159103,20.32937468264216,32.3159242301517,14.073793035574823,
T7,112.04341924763133,124.01865040967066,123.56104304146655,97.72966905819192,52.907865365618704,
Pz,114.29416941891506,181.336320671307,139.8676337320543,188.10181889585957,94.95715128031797,
T8,236.42578487224512,212.66910505580677,175.83898365990598,236.60969542186103,116.6327102889464,
AF4,14.54750953090328,27.511112913173267,12.783255462241017,28.832962756390422,10.206979150484637,
AF3,6.105899475828933,11.287250067159103,20.32937468264216,32.3159242301517,14.073793035574823,
T7,112.04341924763133,124.01865040967066,123.56104304146655,97.72966905819192,52.907865365618704,
Pz,114.29416941891506,181.336320671307,139.8676337320543,188.10181889585957,94.95715128031797,
T8,236.42578487224512,212.66910505580677,175.83898365990598,236.60969542186103,116.6327102889464,
AF4,14.54750953090328,27.511112913173267,12.783255462241017,28.832962756390422,10.206979150484637,
AF3,6.105899475828933,11.287250067159103,20.32937468264216,32.3159242301517,14.073793035574823,
T7,112.04341924763133,124.01865040967066,123.56104304146655,97.72966905819192,52.907865365618704,
Pz,114.29416941891506,181.336320671307,139.8676337320543,188.10181889585957,94.95715128031797,
T8,236.42578487224512,212.66910505580677,175.83898365990598,236.60969542186103,116.6327102889464,
AF4,14.54750953090328,27.511112913173267,12.783255462241017,28.832962756390422,10.206979150484637,
AF3,6.105899475828933,11.287250067159103,20.32937468264216,32.3159242301517,14.073793035574823,
T7,112.04341924763133,124.01865040967066,123.56104304146655,97.72966905819192,52.907865365618704,
Pz,114.29416941891506,181.336320671307,139.8676337320543,188.10181889585957,94.95715128031797,
T8,236.42578487224512,212.66910505580677,175.83898365990598,236.60969542186103,116.6327102889464,
AF4,14.54750953090328,27.511112913173267,12.783255462241017,28.832962756390422,10.206979150484637,
AF3,6.105899475828933,11.287250067159103,20.32937468264216,32.3159242301517,14.073793035574823,
T7,112.04341924763133,124.01865040967066,123.56104304146655,97.72966905819192,52.907865365618704,
Pz,114.29416941891506,181.336320671307,139.8676337320543,188.10181889585957,94.95715128031797,
T8,236.42578487224512,212.66910505580677,175.83898365990598,236.60969542186103,116.6327102889464,
AF4,14.54750953090328,27.511112913173267,12.783255462241017,28.832962756390422,10.206979150484637,
AF3,6.105899475828933,11.287250067159103,20.32937468264216,32.3159242301517,14.073793035574823,
T7,112.04341924763133,124.01865040967066,123.56104304146655,97.72966905819192,52.907865365618704,
Pz,114.29416941891506,181.336320671307,139.8676337320543,188.10181889585957,94.95715128031797,
T8,236.42578487224512,212.66910505580677,175.83898365990598,236.60969542186103,116.6327102889464,
AF4,14.54750953090328,27.511112913173267,12.783255462241017,28.832962756390422,10.206979150484637,
AF3,6.105899475828933,11.287250067159103,20.32937468264216,32.3159242301517,14.073793035574823,
T7,112.04341924763133,124.01865040967066,123.56104304146655,97.72966905819192,52.907865365618704,
Pz,114.29416941891506,181.336320671307,139.8676337320543,188.10181889585957,94.95715128031797,
T8,236.42578487224512,212.66910505580677,175.83898365990598,236.60969542186103,116.6327102889464,
AF4,14.54750953090328,27.511112913173267,12.783255462241017,28.832962756390422,10.206979150484637,
AF3,6.105899475828933,11.287250067159103,20.32937468264216,32.3159242301517,14.073793035574823,
T7,112.04341924763133,124.01865040967066,123.56104304146655,97.72966905819192,52.907865365618704,
Pz,114.29416941891506,181.336320671307,139.8676337320543,188.10181889585957,94.95715128031797,
T8,236.42578487224512,212.66910505580677,175.83898365990598,236.60969542186103,116.6327102889464,
AF4,14.54750953090328,27.511112913173267,12.783255462241017,28.832962756390422,10.206979150484637,
AF3,6.105899475828933,11.287250067159103,20.32937468264216,32.3159242301517,14.073793035574823,
T7,112.04341924763133,124.01865040967066,123.56104304146655,97.72966905819192,52.907865365618704,
Pz,114.29416941891506,181.336320671307,139.8676337320543,188.10181889585957,94.95715128031797,
T8,236.42578487224512,212.66910505580677,175.83898365990598,236.60969542186103,116.6327102889464,
AF4,14.54750953090328,27.511112913173267,12.783255462241017,28.832962756390422,10.206979150484637,
AF3,6.105899475828933,11.287250067159103,20.32937468264216,32.3159242301517,14.073793035574823,
T7,112.04341924763133,124.01865040967066,123.56104304146655,97.72966905819192,52.907865365618704,
Pz,114.29416941891506,181.336320671307,139.8676337320543,188.10181889585957,94.95715128031797,
T8,236.42578487224512,212.66910505580677,175.83898365990598,236.60969542186103,116.6327102889464,
AF4,14.54750953090328,27.511112913173267,12.783255462241017,28.832962756390422,10.206979150484637,
AF3,6.105899475828933,11.287250067159103,20.32937468264216,32.3159242301517,14.073793035574823,
T7,112.04341924763133,124.01865040967066,123.56104304146655,97.72966905819192,52.907865365618704,
Pz,114.29416941891506,181.336320671307,139.8676337320543,188.10181889585957,94.95715128031797,
T8,236.42578487224512,212.66910505580677,175.83898365990598,236.60969542186103,116.6327102889464,
AF4,14.54750953090328,27.511112913173267,12.783255462241017,28.832962756390422,10.206979150484637,
AF3,6.105899475828933,11.287250067159103,20.32937468264216,32.3159242301517,14.073793035574823,
T7,112.04341924763133,124.01865040967066,123.56104304146655,97.72966905819192,52.907865365618704,
Pz,114.29416941891506,181.336320671307,139.8676337320543,188.10181889585957,94.95715128031797,
T8,236.42578487224512,212.66910505580677,175.83898365990598,236.60969542186103,116.6327102889464,
AF4,14.54750953090328,27.511112913173267,12.783255462241017,28.832962756390422,10.206979150484637,
AF3,6.105899475828933,11.287250067159103,20.32937468264216,32.3159242301517,14.073793035574823,
T7,112.04341924763133,124.01865040967066,123.56104304146655,97.72966905819192,52.907865365618704,
Pz,114.29416941891506,181.336320671307,139.8676337320543,188.10181889585957,94.95715128031797,
T8,236.42578487224512,212.66910505580677,175.83898365990598,236.60969542186103,116.6327102889464,
AF4,14.54750953090328,27.511112913173267,12.783255462241017,28.832962756390422,10.206979150484637,
AF3,6.105899475828933,11.287250067159103,20.32937468264216,32.3159242301517,14.073793035574823,
T7,112.04341924763133,124.01865040967066,123.56104304146655,97.72966905819192,52.907865365618704,
Pz,114.29416941891506,181.336320671307,139.8676337320543,188.10181889585957,94.95715128031797,
T8,236.42578487224512,212.66910505580677,175.83898365990598,236.60969542186103,116.6327102889464,
AF4,14.54750953090328,27.511112913173267,12.783255462241017,28.832962756390422,10.206979150484637,
AF3,6.105899475828933,11.287250067159103,20.32937468264216,32.3159242301517,14.073793035574823,
T7,112.04341924763133,124.01865040967066,123.56104304146655,97.72966905819192,52.907865365618704,
Pz,114.29416941891506,181.336320671307,139.8676337320543,188.10181889585957,94.95715128031797,
T8,236.42578487224512,212.66910505580677,175.83898365990598,236.60969542186103,116.6327102889464,
AF4,14.54750953090328,27.511112913173267,12.783255462241017,28.832962756390422,10.206979150484637,
AF3,6.105899475828933,11.287250067159103,20.32937468264216,32.3159242301517,14.073793035574823,
T7,112.04341924763133,124.01865040967066,123.56104304146655,97.72966905819192,52.907865365618704,
Pz,114.29416941891506,181.336320671307,139.8676337320543,188.10181889585957,94.95715128031797,
T8,236.42578487224512,212.66910505580677,175.83898365990598,236.60969542186103,116.6327102889464,
AF4,14.54750953090328,27.511112913173267,12.783255462241017,28.832962756390422,10.206979150484637,
AF3,6.105899475828933,11.287250067159103,20.32937468264216,32.3159242301517,14.073793035574823,
T7,112.04341924763133,124.01865040967066,123.56104304146655,97.72966905819192,52.907865365618704,
Pz,114.29416941891506,181.336320671307,139.8676337320543,188.10181889585957,94.95715128031797,
T8,236.42578487224512,212.66910505580677,175.83898365990598,236.60969542186103,116.6327102889464,
AF4,14.54750953090328,27.511112913173267,12.783255462241017,28.832962756390422,10.206979150484637,
AF3,6.105899475828933,11.287250067159103,20.32937468264216,32.3159242301517,14.073793035574823,
T7,112.04341924763133,124.01865040967066,123.56104304146655,97.72966905819192,52.907865365618704,
Pz,114.29416941891506,181.336320671307,139.8676337320543,188.10181889585957,94.95715128031797,
T8,236.42578487224512,212.66910505580677,175.83898365990598,236.60969542186103,116.6327102889464,
AF4,14.54750953090328,27.511112913173267,12.783255462241017,28.832962756390422,10.206979150484637,
AF3,6.105899475828933,11.287250067159103,20.32937468264216,32.3159242301517,14.073793035574823,
T7,112.04341924763133,124.01865040967066,123.56104304146655,97.72966905819192,52.907865365618704,
Pz,114.29416941891506,181.336320671307,139.8676337320543,188.10181889585957,94.95715128031797,
T8,236.42578487224512,212.66910505580677,175.83898365990598,236.60969542186103,116.6327102889464,
AF4,14.54750953090328,27.511112913173267,12.783255462241017,28.832962756390422,10.206979150484637,
AF3,6.105899475828933,11.287250067159103,20.32937468264216,32.3159242301517,14.073793035574823,
T7,112.04341924763133,124.01865040967066,123.56104304146655,97.72966905819192,52.907865365618704,
Pz,114.29416941891506,181.336320671307,139.8676337320543,188.10181889585957,94.95715128031797,
T8,236.42578487224512,212.66910505580677,175.83898365990598,236.60969542186103,116.6327102889464,
AF4,14.54750953090328,27.511112913173267,12.783255462241017,28.832962756390422,10.206979150484637,
AF3,6.105899475828933,11.287250067159103,20.32937468264216,32.3159242301517,14.073793035574823,
T7,112.04341924763133,124.01865040967066,123.56104304146655,97.72966905819192,52.907865365618704,
Pz,114.29416941891506,181.336320671307,139.8676337320543,188.10181889585957,94.95715128031797,
T8,236.42578487224512,212.66910505580677,175.83898365990598,236.60969542186103,116.6327102889464,
AF4,14.54750953090328,27.511112913173267,12.783255462241017,28.832962756390422,10.206979150484637,
AF3,6.105899475828933,11.287250067159103,20.32937468264216,32.3159242301517,14.073793035574823,
T7,112.04341924763133,124.01865040967066,123.56104304146655,97.72966905819192,52.907865365618704,
Pz,114.29416941891506,181.336320671307,139.8676337320543,188.10181889585957,94.95715128031797,
T8,236.42578487224512,212.66910505580677,175.83898365990598,236.60969542186103,116.6327102889464,
AF4,14.54750953090328,27.511112913173267,12.783255462241017,28.832962756390422,10.206979150484637,
AF3,6.105899475828933,11.287250067159103,20.32937468264216,32.3159242301517,14.073793035574823,
T7,112.04341924763133,124.01865040967066,123.56104304146655,97.72966905819192,52.907865365618704,
Pz,114.29416941891506,181.336320671307,139.8676337320543,188.10181889585957,94.95715128031797,
T8,236.42578487224512,212.66910505580677,175.83898365990598,236.60969542186103,116.6327102889464,
AF4,14.54750953090328,27.511112913173267,12.783255462241017,28.832962756390422,10.206979150484637,
AF3,6.105899475828933,11.287250067159103,20.32937468264216,32.3159242301517,14.073793035574823,
T7,112.04341924763133,124.01865040967066,123.56104304146655,97.72966905819192,52.907865365618704,
Pz,114.29416941891506,181.336320671307,139.8676337320543,188.10181889585957,94.95715128031797,
T8,236.42578487224512,212.66910505580677,175.83898365990598,236.60969542186103,116.6327102889464,
AF4,14.54750953090328,27.511112913173267,12.783255462241017,28.832962756390422,10.206979150484637,
AF3,6.105899475828933,11.287250067159103,20.32937468264216,32.3159242301517,14.073793035574823,
T7,112.04341924763133,124.01865040967066,123.56104304146655,97.72966905819192,52.907865365618704,
Pz,114.29416941891506,181.336320671307,139.8676337320543,188.10181889585957,94.95715128031797,
T8,236.42578487224512,212.66910505580677,175.83898365990598,236.60969542186103,116.6327102889464,
AF4,14.54750953090328,27.511112913173267,12.783255462241017,28.832962756390422,10.206979150484637,
AF3,6.105899475828933,11.287250067159103,20.32937468264216,32.3159242301517,14.073793035574823,
T7,112.04341924763133,124.01865040967066,123.56104304146655,97.72966905819192,52.907865365618704,
Pz,114.29416941891506,181.336320671307,139.8676337320543,188.10181889585957,94.95715128031797,
T8,236.42578487224512,212.66910505580677,175.83898365990598,236.60969542186103,116.6327102889464,
AF4,14.54750953090328,27.511112913173267,12.783255462241017,28.832962756390422,10.206979150484637,
AF3,6.105899475828933,11.287250067159103,20.32937468264216,32.3159242301517,14.073793035574823,
T7,112.04341924763133,124.01865040967066,123.56104304146655,97.72966905819192,52.907865365618704,
Pz,114.29416941891506,181.336320671307,139.8676337320543,188.10181889585957,94.95715128031797,
T8,236.42578487224512,212.66910505580677,175.83898365990598,236.60969542186103,116.6327102889464,
AF4,14.54750953090328,27.511112913173267,12.783255462241017,28.832962756390422,10.206979150484637,
AF3,6.105899475828933,11.287250067159103,20.32937468264216,32.3159242301517,14.073793035574823,
T7,112.04341924763133,124.01865040967066,123.56104304146655,97.72966905819192,52.907865365618704,
Pz,114.29416941891506,181.336320671307,139.8676337320543,188.10181889585957,94.95715128031797,
T8,236.42578487224512,212.66910505580677,175.83898365990598,236.60969542186103,116.6327102889464,
AF4,14.54750953090328,27.511112913173267,12.783255462241017,28.832962756390422,10.206979150484637,
AF3,6.105899475828933,11.287250067159103,20.32937468264216,32.3159242301517,14.073793035574823,
T7,112.04341924763133,124.01865040967066,123.56104304146655,97.72966905819192,52.907865365618704,
Pz,114.29416941891506,181.336320671307,139.8676337320543,188.10181889585957,94.95715128031797,
T8,236.42578487224512,212.66910505580677,175.83898365990598,236.60969542186103,116.6327102889464,
AF4,14.54750953090328,27.511112913173267,12.783255462241017,28.832962756390422,10.206979150484637,
AF3,6.105899475828933,11.287250067159103,20.32937468264216,32.3159242301517,14.073793035574823,
T7,112.04341924763133,124.01865040967066,123.56104304146655,97.72966905819192,52.907865365618704,
Pz,114.29416941891506,181.336320671307,139.8676337320543,188.10181889585957,94.95715128031797,
T8,236.42578487224512,212.66910505580677,175.83898365990598,236.60969542186103,116.6327102889464,
AF4,14.54750953090328,27.511112913173267,12.783255462241017,28.832962756390422,10.206979150484637,
AF3,6.105899475828933,11.287250067159103,20.32937468264216,32.3159242301517,14.073793035574823,
T7,112.04341924763133,124.01865040967066,123.56104304146655,97.72966905819192,52.907865365618704,
Pz,114.29416941891506,181.336320671307,139.8676337320543,188.10181889585957,94.95715128031797,
T8,236.42578487224512,212.66910505580677,175.83898365990598,236.60969542186103,116.6327102889464,
AF4,14.54750953090328,27.511112913173267,12.783255462241017,28.832962756390422,10.206979150484637,
AF3,6.105899475828933,11.287250067159103,20.32937468264216,32.3159242301517,14.073793035574823,
T7,112.04341924763133,124.01865040967066,123.56104304146655,97.72966905819192,52.907865365618704,
Pz,114.29416941891506,181.336320671307,139.8676337320543,188.10181889585957,94.95715128031797,
T8,236.42578487224512,212.66910505580677,175.83898365990598,236.60969542186103,116.6327102889464,
AF4,14.54750953090328,27.511112913173267,12.783255462241017,28.832962756390422,10.206979150484637,
AF3,6.105899475828933,11.287250067159103,20.32937468264216,32.3159242301517,14.073793035574823,
T7,112.04341924763133,124.01865040967066,123.56104304146655,97.72966905819192,52.907865365618704,
Pz,114.29416941891506,181.336320671307,139.8676337320543,188.10181889585957,94.95715128031797,
T8,236.42578487224512,212.66910505580677,175.83898365990598,236.60969542186103,116.6327102889464,
AF4,14.54750953090328,27.511112913173267,12.783255462241017,28.832962756390422,10.206979150484637,
AF3,6.105899475828933,11.287250067159103,20.32937468264216,32.3159242301517,14.073793035574823,
T7,112.04341924763133,124.01865040967066,123.56104304146655,97.72966905819192,52.907865365618704,
Pz,114.29416941891506,181.336320671307,139.8676337320543,188.10181889585957,94.95715128031797,
T8,236.42578487224512,212.66910505580677,175.83898365990598,236.60969542186103,116.6327102889464,
AF4,14.54750953090328,27.511112913173267,12.783255462241017,28.832962756390422,10.206979150484637,
AF3,6.105899475828933,11.287250067159103,20.32937468264216,32.3159242301517,14.073793035574823,
T7,112.04341924763133,124.01865040967066,123.56104304146655,97.72966905819192,52.907865365618704,
Pz,114.29416941891506,181.336320671307,139.8676337320543,188.10181889585957,94.95715128031797,
T8,236.42578487224512,212.66910505580677,175.83898365990598,236.60969542186103,116.6327102889464,
AF4,14.54750953090328,27.511112913173267,12.783255462241017,28.832962756390422,10.206979150484637,
AF3,6.105899475828933,11.287250067159103,20.32937468264216,32.3159242301517,14.073793035574823,
T7,112.04341924763133,124.01865040967066,123.56104304146655,97.72966905819192,52.907865365618704,
Pz,114.29416941891506,181.336320671307,139.8676337320543,188.10181889585957,94.95715128031797,
T8,236.42578487224512,212.66910505580677,175.83898365990598,236.60969542186103,116.6327102889464,
AF4,14.54750953090328,27.511112913173267,12.783255462241017,28.832962756390422,10.206979150484637,
AF3,6.105899475828933,11.287250067159103,20.32937468264216,32.3159242301517,14.073793035574823,
T7,112.04341924763133,124.01865040967066,123.56104304146655,97.72966905819192,52.907865365618704,
Pz,114.29416941891506,181.336320671307,139.8676337320543,188.10181889585957,94.95715128031797,
T8,236.42578487224512,212.66910505580677,175.83898365990598,236.60969542186103,116.6327102889464,
AF4,14.54750953090328,27.511112913173267,12.783255462241017,28.832962756390422,10.206979150484637,
AF3,6.105899475828933,11.287250067159103,20.32937468264216,32.3159242301517,14.073793035574823,
T7,112.04341924763133,124.01865040967066,123.56104304146655,97.72966905819192,52.907865365618704,
Pz,114.29416941891506,181.336320671307,139.8676337320543,188.10181889585957,94.95715128031797,
T8,236.42578487224512,212.66910505580677,175.83898365990598,236.60969542186103,116.6327102889464,
AF4,14.54750953090328,27.511112913173267,12.783255462241017,28.832962756390422,10.206979150484637,
AF3,6.105899475828933,11.287250067159103,20.32937468264216,32.3159242301517,14.073793035574823,
T7,112.04341924763133,124.01865040967066,123.56104304146655,97.72966905819192,52.907865365618704,
Pz,114.29416941891506,181.336320671307,139.8676337320543,188.10181889585957,94.95715128031797,
T8,236.42578487224512,212.66910505580677,175.83898365990598,236.60969542186103,116.6327102889464,
AF4,14.54750953090328,27.511112913173267,12.783255462241017,28.832962756390422,10.206979150484637,
AF3,19.071358941228553,7.735134678639779,19.249286076190955,26.56821548117193,14.170995998763917,
T7,104.4236579446287,130.13039359101387,76.44100585857915,115.08176537145695,48.140923240823064,
Pz,156.09256164140936,194.0441645595104,158.31178464701637,150.10556683877863,89.75443906166399,
T8,132.3936446762354,144.3412502961011,226.5166230751313,174.51895979953707,115.91468006521724,
AF4,21.49786350854711,7.956172202150792,3.5167645067273856,19.69518307097301,8.412494557368783,
AF3,19.071358941228553,7.735134678639779,19.249286076190955,26.56821548117193,14.170995998763917,
T7,104.4236579446287,130.13039359101387,76.44100585857915,115.08176537145695,48.140923240823064,
Pz,156.09256164140936,194.0441645595104,158.31178464701637,150.10556683877863,89.75443906166399,
T8,132.3936446762354,144.3412502961011,226.5166230751313,174.51895979953707,115.91468006521724,
AF4,21.49786350854711,7.956172202150792,3.5167645067273856,19.69518307097301,8.412494557368783,
AF3,19.071358941228553,7.735134678639779,19.249286076190955,26.56821548117193,14.170995998763917,
T7,104.4236579446287,130.13039359101387,76.44100585857915,115.08176537145695,48.140923240823064,
Pz,156.09256164140936,194.0441645595104,158.31178464701637,150.10556683877863,89.75443906166399,
T8,132.3936446762354,144.3412502961011,226.5166230751313,174.51895979953707,115.91468006521724,
AF4,21.49786350854711,7.956172202150792,3.5167645067273856,19.69518307097301,8.412494557368783,
AF3,19.071358941228553,7.735134678639779,19.249286076190955,26.56821548117193,14.170995998763917,
T7,104.4236579446287,130.13039359101387,76.44100585857915,115.08176537145695,48.140923240823064,
Pz,156.09256164140936,194.0441645595104,158.31178464701637,150.10556683877863,89.75443906166399,
T8,132.3936446762354,144.3412502961011,226.5166230751313,174.51895979953707,115.91468006521724,
AF4,21.49786350854711,7.956172202150792,3.5167645067273856,19.69518307097301,8.412494557368783,
AF3,19.071358941228553,7.735134678639779,19.249286076190955,26.56821548117193,14.170995998763917,
T7,104.4236579446287,130.13039359101387,76.44100585857915,115.08176537145695,48.140923240823064,
Pz,156.09256164140936,194.0441645595104,158.31178464701637,150.10556683877863,89.75443906166399,
T8,132.3936446762354,144.3412502961011,226.5166230751313,174.51895979953707,115.91468006521724,
AF4,21.49786350854711,7.956172202150792,3.5167645067273856,19.69518307097301,8.412494557368783,
AF3,19.071358941228553,7.735134678639779,19.249286076190955,26.56821548117193,14.170995998763917,
T7,104.4236579446287,130.13039359101387,76.44100585857915,115.08176537145695,48.140923240823064,
Pz,156.09256164140936,194.0441645595104,158.31178464701637,150.10556683877863,89.75443906166399,
T8,132.3936446762354,144.3412502961011,226.5166230751313,174.51895979953707,115.91468006521724,
AF4,21.49786350854711,7.956172202150792,3.5167645067273856,19.69518307097301,8.412494557368783,
AF3,19.071358941228553,7.735134678639779,19.249286076190955,26.56821548117193,14.170995998763917,
T7,104.4236579446287,130.13039359101387,76.44100585857915,115.08176537145695,48.140923240823064,
Pz,156.09256164140936,194.0441645595104,158.31178464701637,150.10556683877863,89.75443906166399,
T8,132.3936446762354,144.3412502961011,226.5166230751313,174.51895979953707,115.91468006521724,
AF4,21.49786350854711,7.956172202150792,3.5167645067273856,19.69518307097301,8.412494557368783,
AF3,19.071358941228553,7.735134678639779,19.249286076190955,26.56821548117193,14.170995998763917,
T7,104.4236579446287,130.13039359101387,76.44100585857915,115.08176537145695,48.140923240823064,
Pz,156.09256164140936,194.0441645595104,158.31178464701637,150.10556683877863,89.75443906166399,
T8,132.3936446762354,144.3412502961011,226.5166230751313,174.51895979953707,115.91468006521724,
AF4,21.49786350854711,7.956172202150792,3.5167645067273856,19.69518307097301,8.412494557368783,
AF3,19.071358941228553,7.735134678639779,19.249286076190955,26.56821548117193,14.170995998763917,
T7,104.4236579446287,130.13039359101387,76.44100585857915,115.08176537145695,48.140923240823064,
Pz,156.09256164140936,194.0441645595104,158.31178464701637,150.10556683877863,89.75443906166399,
T8,132.3936446762354,144.3412502961011,226.5166230751313,174.51895979953707,115.91468006521724,
AF4,21.49786350854711,7.956172202150792,3.5167645067273856,19.69518307097301,8.412494557368783,
AF3,19.071358941228553,7.735134678639779,19.249286076190955,26.56821548117193,14.170995998763917,
T7,104.4236579446287,130.13039359101387,76.44100585857915,115.08176537145695,48.140923240823064,
Pz,156.09256164140936,194.0441645595104,158.31178464701637,150.10556683877863,89.75443906166399,
T8,132.3936446762354,144.3412502961011,226.5166230751313,174.51895979953707,115.91468006521724,
AF4,21.49786350854711,7.956172202150792,3.5167645067273856,19.69518307097301,8.412494557368783,
AF3,19.071358941228553,7.735134678639779,19.249286076190955,26.56821548117193,14.170995998763917,
T7,104.4236579446287,130.13039359101387,76.44100585857915,115.08176537145695,48.140923240823064,
Pz,156.09256164140936,194.0441645595104,158.31178464701637,150.10556683877863,89.75443906166399,
T8,132.3936446762354,144.3412502961011,226.5166230751313,174.51895979953707,115.91468006521724,
AF4,21.49786350854711,7.956172202150792,3.5167645067273856,19.69518307097301,8.412494557368783,
AF3,19.071358941228553,7.735134678639779,19.249286076190955,26.56821548117193,14.170995998763917,
T7,104.4236579446287,130.13039359101387,76.44100585857915,115.08176537145695,48.140923240823064,
Pz,156.09256164140936,194.0441645595104,158.31178464701637,150.10556683877863,89.75443906166399,
T8,132.3936446762354,144.3412502961011,226.5166230751313,174.51895979953707,115.91468006521724,
AF4,21.49786350854711,7.956172202150792,3.5167645067273856,19.69518307097301,8.412494557368783,
AF3,19.071358941228553,7.735134678639779,19.249286076190955,26.56821548117193,14.170995998763917,
T7,104.4236579446287,130.13039359101387,76.44100585857915,115.08176537145695,48.140923240823064,
Pz,156.09256164140936,194.0441645595104,158.31178464701637,150.10556683877863,89.75443906166399,
T8,132.3936446762354,144.3412502961011,226.5166230751313,174.51895979953707,115.91468006521724,
AF4,21.49786350854711,7.956172202150792,3.5167645067273856,19.69518307097301,8.412494557368783,
AF3,19.071358941228553,7.735134678639779,19.249286076190955,26.56821548117193,14.170995998763917,
T7,104.4236579446287,130.13039359101387,76.44100585857915,115.08176537145695,48.140923240823064,
Pz,156.09256164140936,194.0441645595104,158.31178464701637,150.10556683877863,89.75443906166399,
T8,132.3936446762354,144.3412502961011,226.5166230751313,174.51895979953707,115.91468006521724,
AF4,21.49786350854711,7.956172202150792,3.5167645067273856,19.69518307097301,8.412494557368783,
AF3,19.071358941228553,7.735134678639779,19.249286076190955,26.56821548117193,14.170995998763917,
T7,104.4236579446287,130.13039359101387,76.44100585857915,115.08176537145695,48.140923240823064,
Pz,156.09256164140936,194.0441645595104,158.31178464701637,150.10556683877863,89.75443906166399,
T8,132.3936446762354,144.3412502961011,226.5166230751313,174.51895979953707,115.91468006521724,
AF4,21.49786350854711,7.956172202150792,3.5167645067273856,19.69518307097301,8.412494557368783,
AF3,19.071358941228553,7.735134678639779,19.249286076190955,26.56821548117193,14.170995998763917,
T7,104.4236579446287,130.13039359101387,76.44100585857915,115.08176537145695,48.140923240823064,
Pz,156.09256164140936,194.0441645595104,158.31178464701637,150.10556683877863,89.75443906166399,
T8,132.3936446762354,144.3412502961011,226.5166230751313,174.51895979953707,115.91468006521724,
AF4,21.49786350854711,7.956172202150792,3.5167645067273856,19.69518307097301,8.412494557368783,
AF3,19.071358941228553,7.735134678639779,19.249286076190955,26.56821548117193,14.170995998763917,
T7,104.4236579446287,130.13039359101387,76.44100585857915,115.08176537145695,48.140923240823064,
Pz,156.09256164140936,194.0441645595104,158.31178464701637,150.10556683877863,89.75443906166399,
T8,132.3936446762354,144.3412502961011,226.5166230751313,174.51895979953707,115.91468006521724,
AF4,21.49786350854711,7.956172202150792,3.5167645067273856,19.69518307097301,8.412494557368783,
AF3,19.071358941228553,7.735134678639779,19.249286076190955,26.56821548117193,14.170995998763917,
T7,104.4236579446287,130.13039359101387,76.44100585857915,115.08176537145695,48.140923240823064,
Pz,156.09256164140936,194.0441645595104,158.31178464701637,150.10556683877863,89.75443906166399,
T8,132.3936446762354,144.3412502961011,226.5166230751313,174.51895979953707,115.91468006521724,
AF4,21.49786350854711,7.956172202150792,3.5167645067273856,19.69518307097301,8.412494557368783,
AF3,19.071358941228553,7.735134678639779,19.249286076190955,26.56821548117193,14.170995998763917,
T7,104.4236579446287,130.13039359101387,76.44100585857915,115.08176537145695,48.140923240823064,
Pz,156.09256164140936,194.0441645595104,158.31178464701637,150.10556683877863,89.75443906166399,
T8,132.3936446762354,144.3412502961011,226.5166230751313,174.51895979953707,115.91468006521724,
AF4,21.49786350854711,7.956172202150792,3.5167645067273856,19.69518307097301,8.412494557368783,
AF3,19.071358941228553,7.735134678639779,19.249286076190955,26.56821548117193,14.170995998763917,
T7,104.4236579446287,130.13039359101387,76.44100585857915,115.08176537145695,48.140923240823064,
Pz,156.09256164140936,194.0441645595104,158.31178464701637,150.10556683877863,89.75443906166399,
T8,132.3936446762354,144.3412502961011,226.5166230751313,174.51895979953707,115.91468006521724,
AF4,21.49786350854711,7.956172202150792,3.5167645067273856,19.69518307097301,8.412494557368783,
AF3,19.071358941228553,7.735134678639779,19.249286076190955,26.56821548117193,14.170995998763917,
T7,104.4236579446287,130.13039359101387,76.44100585857915,115.08176537145695,48.140923240823064,
Pz,156.09256164140936,194.0441645595104,158.31178464701637,150.10556683877863,89.75443906166399,
T8,132.3936446762354,144.3412502961011,226.5166230751313,174.51895979953707,115.91468006521724,
AF4,21.49786350854711,7.956172202150792,3.5167645067273856,19.69518307097301,8.412494557368783,
AF3,19.071358941228553,7.735134678639779,19.249286076190955,26.56821548117193,14.170995998763917,
T7,104.4236579446287,130.13039359101387,76.44100585857915,115.08176537145695,48.140923240823064,
Pz,156.09256164140936,194.0441645595104,158.31178464701637,150.10556683877863,89.75443906166399,
T8,132.3936446762354,144.3412502961011,226.5166230751313,174.51895979953707,115.91468006521724,
AF4,21.49786350854711,7.956172202150792,3.5167645067273856,19.69518307097301,8.412494557368783,
AF3,19.071358941228553,7.735134678639779,19.249286076190955,26.56821548117193,14.170995998763917,
T7,104.4236579446287,130.13039359101387,76.44100585857915,115.08176537145695,48.140923240823064,
Pz,156.09256164140936,194.0441645595104,158.31178464701637,150.10556683877863,89.75443906166399,
T8,132.3936446762354,144.3412502961011,226.5166230751313,174.51895979953707,115.91468006521724,
AF4,21.49786350854711,7.956172202150792,3.5167645067273856,19.69518307097301,8.412494557368783,
AF3,19.071358941228553,7.735134678639779,19.249286076190955,26.56821548117193,14.170995998763917,
T7,104.4236579446287,130.13039359101387,76.44100585857915,115.08176537145695,48.140923240823064,
Pz,156.09256164140936,194.0441645595104,158.31178464701637,150.10556683877863,89.75443906166399,
T8,132.3936446762354,144.3412502961011,226.5166230751313,174.51895979953707,115.91468006521724,
AF4,21.49786350854711,7.956172202150792,3.5167645067273856,19.69518307097301,8.412494557368783,
AF3,19.071358941228553,7.735134678639779,19.249286076190955,26.56821548117193,14.170995998763917,
T7,104.4236579446287,130.13039359101387,76.44100585857915,115.08176537145695,48.140923240823064,
Pz,156.09256164140936,194.0441645595104,158.31178464701637,150.10556683877863,89.75443906166399,
T8,132.3936446762354,144.3412502961011,226.5166230751313,174.51895979953707,115.91468006521724,
AF4,21.49786350854711,7.956172202150792,3.5167645067273856,19.69518307097301,8.412494557368783,
AF3,19.071358941228553,7.735134678639779,19.249286076190955,26.56821548117193,14.170995998763917,
T7,104.4236579446287,130.13039359101387,76.44100585857915,115.08176537145695,48.140923240823064,
Pz,156.09256164140936,194.0441645595104,158.31178464701637,150.10556683877863,89.75443906166399,
T8,132.3936446762354,144.3412502961011,226.5166230751313,174.51895979953707,115.91468006521724,
AF4,21.49786350854711,7.956172202150792,3.5167645067273856,19.69518307097301,8.412494557368783,
AF3,19.071358941228553,7.735134678639779,19.249286076190955,26.56821548117193,14.170995998763917,
T7,104.4236579446287,130.13039359101387,76.44100585857915,115.08176537145695,48.140923240823064,
Pz,156.09256164140936,194.0441645595104,158.31178464701637,150.10556683877863,89.75443906166399,
T8,132.3936446762354,144.3412502961011,226.5166230751313,174.51895979953707,115.91468006521724,
AF4,21.49786350854711,7.956172202150792,3.5167645067273856,19.69518307097301,8.412494557368783,
AF3,19.071358941228553,7.735134678639779,19.249286076190955,26.56821548117193,14.170995998763917,
T7,104.4236579446287,130.13039359101387,76.44100585857915,115.08176537145695,48.140923240823064,
Pz,156.09256164140936,194.0441645595104,158.31178464701637,150.10556683877863,89.75443906166399,
T8,132.3936446762354,144.3412502961011,226.5166230751313,174.51895979953707,115.91468006521724,
AF4,21.49786350854711,7.956172202150792,3.5167645067273856,19.69518307097301,8.412494557368783,
AF3,19.071358941228553,7.735134678639779,19.249286076190955,26.56821548117193,14.170995998763917,
T7,104.4236579446287,130.13039359101387,76.44100585857915,115.08176537145695,48.140923240823064,
Pz,156.09256164140936,194.0441645595104,158.31178464701637,150.10556683877863,89.75443906166399,
T8,132.3936446762354,144.3412502961011,226.5166230751313,174.51895979953707,115.91468006521724,
AF4,21.49786350854711,7.956172202150792,3.5167645067273856,19.69518307097301,8.412494557368783,
AF3,19.071358941228553,7.735134678639779,19.249286076190955,26.56821548117193,14.170995998763917,
T7,104.4236579446287,130.13039359101387,76.44100585857915,115.08176537145695,48.140923240823064,
Pz,156.09256164140936,194.0441645595104,158.31178464701637,150.10556683877863,89.75443906166399,
T8,132.3936446762354,144.3412502961011,226.5166230751313,174.51895979953707,115.91468006521724,
AF4,21.49786350854711,7.956172202150792,3.5167645067273856,19.69518307097301,8.412494557368783,
AF3,19.071358941228553,7.735134678639779,19.249286076190955,26.56821548117193,14.170995998763917,
T7,104.4236579446287,130.13039359101387,76.44100585857915,115.08176537145695,48.140923240823064,
Pz,156.09256164140936,194.0441645595104,158.31178464701637,150.10556683877863,89.75443906166399,
T8,132.3936446762354,144.3412502961011,226.5166230751313,174.51895979953707,115.91468006521724,
AF4,21.49786350854711,7.956172202150792,3.5167645067273856,19.69518307097301,8.412494557368783,
AF3,19.071358941228553,7.735134678639779,19.249286076190955,26.56821548117193,14.170995998763917,
T7,104.4236579446287,130.13039359101387,76.44100585857915,115.08176537145695,48.140923240823064,
Pz,156.09256164140936,194.0441645595104,158.31178464701637,150.10556683877863,89.75443906166399,
T8,132.3936446762354,144.3412502961011,226.5166230751313,174.51895979953707,115.91468006521724,
AF4,21.49786350854711,7.956172202150792,3.5167645067273856,19.69518307097301,8.412494557368783,
AF3,19.071358941228553,7.735134678639779,19.249286076190955,26.56821548117193,14.170995998763917,
T7,104.4236579446287,130.13039359101387,76.44100585857915,115.08176537145695,48.140923240823064,
Pz,156.09256164140936,194.0441645595104,158.31178464701637,150.10556683877863,89.75443906166399,
T8,132.3936446762354,144.3412502961011,226.5166230751313,174.51895979953707,115.91468006521724,
AF4,21.49786350854711,7.956172202150792,3.5167645067273856,19.69518307097301,8.412494557368783,
AF3,19.071358941228553,7.735134678639779,19.249286076190955,26.56821548117193,14.170995998763917,
T7,104.4236579446287,130.13039359101387,76.44100585857915,115.08176537145695,48.140923240823064,
Pz,156.09256164140936,194.0441645595104,158.31178464701637,150.10556683877863,89.75443906166399,
T8,132.3936446762354,144.3412502961011,226.5166230751313,174.51895979953707,115.91468006521724,
AF4,21.49786350854711,7.956172202150792,3.5167645067273856,19.69518307097301,8.412494557368783,
AF3,19.071358941228553,7.735134678639779,19.249286076190955,26.56821548117193,14.170995998763917,
T7,104.4236579446287,130.13039359101387,76.44100585857915,115.08176537145695,48.140923240823064,
Pz,156.09256164140936,194.0441645595104,158.31178464701637,150.10556683877863,89.75443906166399,
T8,132.3936446762354,144.3412502961011,226.5166230751313,174.51895979953707,115.91468006521724,
AF4,21.49786350854711,7.956172202150792,3.5167645067273856,19.69518307097301,8.412494557368783,
AF3,19.071358941228553,7.735134678639779,19.249286076190955,26.56821548117193,14.170995998763917,
T7,104.4236579446287,130.13039359101387,76.44100585857915,115.08176537145695,48.140923240823064,
Pz,156.09256164140936,194.0441645595104,158.31178464701637,150.10556683877863,89.75443906166399,
T8,132.3936446762354,144.3412502961011,226.5166230751313,174.51895979953707,115.91468006521724,
AF4,21.49786350854711,7.956172202150792,3.5167645067273856,19.69518307097301,8.412494557368783,
AF3,19.071358941228553,7.735134678639779,19.249286076190955,26.56821548117193,14.170995998763917,
T7,104.4236579446287,130.13039359101387,76.44100585857915,115.08176537145695,48.140923240823064,
Pz,156.09256164140936,194.0441645595104,158.31178464701637,150.10556683877863,89.75443906166399,
T8,132.3936446762354,144.3412502961011,226.5166230751313,174.51895979953707,115.91468006521724,
AF4,21.49786350854711,7.956172202150792,3.5167645067273856,19.69518307097301,8.412494557368783,
AF3,19.071358941228553,7.735134678639779,19.249286076190955,26.56821548117193,14.170995998763917,
T7,104.4236579446287,130.13039359101387,76.44100585857915,115.08176537145695,48.140923240823064,
Pz,156.09256164140936,194.0441645595104,158.31178464701637,150.10556683877863,89.75443906166399,
T8,132.3936446762354,144.3412502961011,226.5166230751313,174.51895979953707,115.91468006521724,
AF4,21.49786350854711,7.956172202150792,3.5167645067273856,19.69518307097301,8.412494557368783,
AF3,19.071358941228553,7.735134678639779,19.249286076190955,26.56821548117193,14.170995998763917,
T7,104.4236579446287,130.13039359101387,76.44100585857915,115.08176537145695,48.140923240823064,
Pz,156.09256164140936,194.0441645595104,158.31178464701637,150.10556683877863,89.75443906166399,
T8,132.3936446762354,144.3412502961011,226.5166230751313,174.51895979953707,115.91468006521724,
AF4,21.49786350854711,7.956172202150792,3.5167645067273856,19.69518307097301,8.412494557368783,
AF3,19.071358941228553,7.735134678639779,19.249286076190955,26.56821548117193,14.170995998763917,
T7,104.4236579446287,130.13039359101387,76.44100585857915,115.08176537145695,48.140923240823064,
Pz,156.09256164140936,194.0441645595104,158.31178464701637,150.10556683877863,89.75443906166399,
T8,132.3936446762354,144.3412502961011,226.5166230751313,174.51895979953707,115.91468006521724,
AF4,21.49786350854711,7.956172202150792,3.5167645067273856,19.69518307097301,8.412494557368783,
AF3,19.071358941228553,7.735134678639779,19.249286076190955,26.56821548117193,14.170995998763917,
T7,104.4236579446287,130.13039359101387,76.44100585857915,115.08176537145695,48.140923240823064,
Pz,156.09256164140936,194.0441645595104,158.31178464701637,150.10556683877863,89.75443906166399,
T8,132.3936446762354,144.3412502961011,226.5166230751313,174.51895979953707,115.91468006521724,
AF4,21.49786350854711,7.956172202150792,3.5167645067273856,19.69518307097301,8.412494557368783,
AF3,19.071358941228553,7.735134678639779,19.249286076190955,26.56821548117193,14.170995998763917,
T7,104.4236579446287,130.13039359101387,76.44100585857915,115.08176537145695,48.140923240823064,
Pz,156.09256164140936,194.0441645595104,158.31178464701637,150.10556683877863,89.75443906166399,
T8,132.3936446762354,144.3412502961011,226.5166230751313,174.51895979953707,115.91468006521724,
AF4,21.49786350854711,7.956172202150792,3.5167645067273856,19.69518307097301,8.412494557368783,
AF3,19.071358941228553,7.735134678639779,19.249286076190955,26.56821548117193,14.170995998763917,
T7,104.4236579446287,130.13039359101387,76.44100585857915,115.08176537145695,48.140923240823064,
Pz,156.09256164140936,194.0441645595104,158.31178464701637,150.10556683877863,89.75443906166399,
T8,132.3936446762354,144.3412502961011,226.5166230751313,174.51895979953707,115.91468006521724,
AF4,21.49786350854711,7.956172202150792,3.5167645067273856,19.69518307097301,8.412494557368783,
AF3,19.071358941228553,7.735134678639779,19.249286076190955,26.56821548117193,14.170995998763917,
T7,104.4236579446287,130.13039359101387,76.44100585857915,115.08176537145695,48.140923240823064,
Pz,156.09256164140936,194.0441645595104,158.31178464701637,150.10556683877863,89.75443906166399,
T8,132.3936446762354,144.3412502961011,226.5166230751313,174.51895979953707,115.91468006521724,
AF4,21.49786350854711,7.956172202150792,3.5167645067273856,19.69518307097301,8.412494557368783,
AF3,19.071358941228553,7.735134678639779,19.249286076190955,26.56821548117193,14.170995998763917,
T7,104.4236579446287,130.13039359101387,76.44100585857915,115.08176537145695,48.140923240823064,
Pz,156.09256164140936,194.0441645595104,158.31178464701637,150.10556683877863,89.75443906166399,
T8,132.3936446762354,144.3412502961011,226.5166230751313,174.51895979953707,115.91468006521724,
AF4,21.49786350854711,7.956172202150792,3.5167645067273856,19.69518307097301,8.412494557368783,
AF3,19.071358941228553,7.735134678639779,19.249286076190955,26.56821548117193,14.170995998763917,
T7,104.4236579446287,130.13039359101387,76.44100585857915,115.08176537145695,48.140923240823064,
Pz,156.09256164140936,194.0441645595104,158.31178464701637,150.10556683877863,89.75443906166399,
T8,132.3936446762354,144.3412502961011,226.5166230751313,174.51895979953707,115.91468006521724,
AF4,21.49786350854711,7.956172202150792,3.5167645067273856,19.69518307097301,8.412494557368783,
AF3,19.071358941228553,7.735134678639779,19.249286076190955,26.56821548117193,14.170995998763917,
T7,104.4236579446287,130.13039359101387,76.44100585857915,115.08176537145695,48.140923240823064,
Pz,156.09256164140936,194.0441645595104,158.31178464701637,150.10556683877863,89.75443906166399,
T8,132.3936446762354,144.3412502961011,226.5166230751313,174.51895979953707,115.91468006521724,
AF4,21.49786350854711,7.956172202150792,3.5167645067273856,19.69518307097301,8.412494557368783,
AF3,19.071358941228553,7.735134678639779,19.249286076190955,26.56821548117193,14.170995998763917,
T7,104.4236579446287,130.13039359101387,76.44100585857915,115.08176537145695,48.140923240823064,
Pz,156.09256164140936,194.0441645595104,158.31178464701637,150.10556683877863,89.75443906166399,
T8,132.3936446762354,144.3412502961011,226.5166230751313,174.51895979953707,115.91468006521724,
AF4,21.49786350854711,7.956172202150792,3.5167645067273856,19.69518307097301,8.412494557368783,
AF3,19.071358941228553,7.735134678639779,19.249286076190955,26.56821548117193,14.170995998763917,
T7,104.4236579446287,130.13039359101387,76.44100585857915,115.08176537145695,48.140923240823064,
Pz,156.09256164140936,194.0441645595104,158.31178464701637,150.10556683877863,89.75443906166399,
T8,132.3936446762354,144.3412502961011,226.5166230751313,174.51895979953707,115.91468006521724,
AF4,21.49786350854711,7.956172202150792,3.5167645067273856,19.69518307097301,8.412494557368783,
AF3,19.071358941228553,7.735134678639779,19.249286076190955,26.56821548117193,14.170995998763917,
T7,104.4236579446287,130.13039359101387,76.44100585857915,115.08176537145695,48.140923240823064,
Pz,156.09256164140936,194.0441645595104,158.31178464701637,150.10556683877863,89.75443906166399,
T8,132.3936446762354,144.3412502961011,226.5166230751313,174.51895979953707,115.91468006521724,
AF4,21.49786350854711,7.956172202150792,3.5167645067273856,19.69518307097301,8.412494557368783,
AF3,19.071358941228553,7.735134678639779,19.249286076190955,26.56821548117193,14.170995998763917,
T7,104.4236579446287,130.13039359101387,76.44100585857915,115.08176537145695,48.140923240823064,
Pz,156.09256164140936,194.0441645595104,158.31178464701637,150.10556683877863,89.75443906166399,
T8,132.3936446762354,144.3412502961011,226.5166230751313,174.51895979953707,115.91468006521724,
AF4,21.49786350854711,7.956172202150792,3.5167645067273856,19.69518307097301,8.412494557368783,
AF3,19.071358941228553,7.735134678639779,19.249286076190955,26.56821548117193,14.170995998763917,
T7,104.4236579446287,130.13039359101387,76.44100585857915,115.08176537145695,48.140923240823064,
Pz,156.09256164140936,194.0441645595104,158.31178464701637,150.10556683877863,89.75443906166399,
T8,132.3936446762354,144.3412502961011,226.5166230751313,174.51895979953707,115.91468006521724,
AF4,21.49786350854711,7.956172202150792,3.5167645067273856,19.69518307097301,8.412494557368783,
AF3,19.071358941228553,7.735134678639779,19.249286076190955,26.56821548117193,14.170995998763917,
T7,104.4236579446287,130.13039359101387,76.44100585857915,115.08176537145695,48.140923240823064,
Pz,156.09256164140936,194.0441645595104,158.31178464701637,150.10556683877863,89.75443906166399,
T8,132.3936446762354,144.3412502961011,226.5166230751313,174.51895979953707,115.91468006521724,
AF4,21.49786350854711,7.956172202150792,3.5167645067273856,19.69518307097301,8.412494557368783,
AF3,19.071358941228553,7.735134678639779,19.249286076190955,26.56821548117193,14.170995998763917,
T7,104.4236579446287,130.13039359101387,76.44100585857915,115.08176537145695,48.140923240823064,
Pz,156.09256164140936,194.0441645595104,158.31178464701637,150.10556683877863,89.75443906166399,
T8,132.3936446762354,144.3412502961011,226.5166230751313,174.51895979953707,115.91468006521724,
AF4,21.49786350854711,7.956172202150792,3.5167645067273856,19.69518307097301,8.412494557368783,
AF3,19.071358941228553,7.735134678639779,19.249286076190955,26.56821548117193,14.170995998763917,
T7,104.4236579446287,130.13039359101387,76.44100585857915,115.08176537145695,48.140923240823064,
Pz,156.09256164140936,194.0441645595104,158.31178464701637,150.10556683877863,89.75443906166399,
T8,132.3936446762354,144.3412502961011,226.5166230751313,174.51895979953707,115.91468006521724,
AF4,21.49786350854711,7.956172202150792,3.5167645067273856,19.69518307097301,8.412494557368783,
AF3,19.071358941228553,7.735134678639779,19.249286076190955,26.56821548117193,14.170995998763917,
T7,104.4236579446287,130.13039359101387,76.44100585857915,115.08176537145695,48.140923240823064,
Pz,156.09256164140936,194.0441645595104,158.31178464701637,150.10556683877863,89.75443906166399,
T8,132.3936446762354,144.3412502961011,226.5166230751313,174.51895979953707,115.91468006521724,
AF4,21.49786350854711,7.956172202150792,3.5167645067273856,19.69518307097301,8.412494557368783,
AF3,19.071358941228553,7.735134678639779,19.249286076190955,26.56821548117193,14.170995998763917,
T7,104.4236579446287,130.13039359101387,76.44100585857915,115.08176537145695,48.140923240823064,
Pz,156.09256164140936,194.0441645595104,158.31178464701637,150.10556683877863,89.75443906166399,
T8,132.3936446762354,144.3412502961011,226.5166230751313,174.51895979953707,115.91468006521724,
AF4,21.49786350854711,7.956172202150792,3.5167645067273856,19.69518307097301,8.412494557368783,
AF3,19.071358941228553,7.735134678639779,19.249286076190955,26.56821548117193,14.170995998763917,
T7,104.4236579446287,130.13039359101387,76.44100585857915,115.08176537145695,48.140923240823064,
Pz,156.09256164140936,194.0441645595104,158.31178464701637,150.10556683877863,89.75443906166399,
T8,132.3936446762354,144.3412502961011,226.5166230751313,174.51895979953707,115.91468006521724,
AF4,21.49786350854711,7.956172202150792,3.5167645067273856,19.69518307097301,8.412494557368783,
AF3,19.071358941228553,7.735134678639779,19.249286076190955,26.56821548117193,14.170995998763917,
T7,104.4236579446287,130.13039359101387,76.44100585857915,115.08176537145695,48.140923240823064,
Pz,156.09256164140936,194.0441645595104,158.31178464701637,150.10556683877863,89.75443906166399,
T8,132.3936446762354,144.3412502961011,226.5166230751313,174.51895979953707,115.91468006521724,
AF4,21.49786350854711,7.956172202150792,3.5167645067273856,19.69518307097301,8.412494557368783,
AF3,19.071358941228553,7.735134678639779,19.249286076190955,26.56821548117193,14.170995998763917,
T7,104.4236579446287,130.13039359101387,76.44100585857915,115.08176537145695,48.140923240823064,
Pz,156.09256164140936,194.0441645595104,158.31178464701637,150.10556683877863,89.75443906166399,
T8,132.3936446762354,144.3412502961011,226.5166230751313,174.51895979953707,115.91468006521724,
AF4,21.49786350854711,7.956172202150792,3.5167645067273856,19.69518307097301,8.412494557368783,
AF3,19.071358941228553,7.735134678639779,19.249286076190955,26.56821548117193,14.170995998763917,
T7,104.4236579446287,130.13039359101387,76.44100585857915,115.08176537145695,48.140923240823064,
Pz,156.09256164140936,194.0441645595104,158.31178464701637,150.10556683877863,89.75443906166399,
T8,132.3936446762354,144.3412502961011,226.5166230751313,174.51895979953707,115.91468006521724,
AF4,21.49786350854711,7.956172202150792,3.5167645067273856,19.69518307097301,8.412494557368783,
AF3,19.071358941228553,7.735134678639779,19.249286076190955,26.56821548117193,14.170995998763917,
T7,104.4236579446287,130.13039359101387,76.44100585857915,115.08176537145695,48.140923240823064,
Pz,156.09256164140936,194.0441645595104,158.31178464701637,150.10556683877863,89.75443906166399,
T8,132.3936446762354,144.3412502961011,226.5166230751313,174.51895979953707,115.91468006521724,
AF4,21.49786350854711,7.956172202150792,3.5167645067273856,19.69518307097301,8.412494557368783,
AF3,19.071358941228553,7.735134678639779,19.249286076190955,26.56821548117193,14.170995998763917,
T7,104.4236579446287,130.13039359101387,76.44100585857915,115.08176537145695,48.140923240823064,
Pz,156.09256164140936,194.0441645595104,158.31178464701637,150.10556683877863,89.75443906166399,
T8,132.3936446762354,144.3412502961011,226.5166230751313,174.51895979953707,115.91468006521724,
AF4,21.49786350854711,7.956172202150792,3.5167645067273856,19.69518307097301,8.412494557368783,
AF3,19.071358941228553,7.735134678639779,19.249286076190955,26.56821548117193,14.170995998763917,
T7,104.4236579446287,130.13039359101387,76.44100585857915,115.08176537145695,48.140923240823064,
Pz,156.09256164140936,194.0441645595104,158.31178464701637,150.10556683877863,89.75443906166399,
T8,132.3936446762354,144.3412502961011,226.5166230751313,174.51895979953707,115.91468006521724,
AF4,21.49786350854711,7.956172202150792,3.5167645067273856,19.69518307097301,8.412494557368783,
AF3,19.071358941228553,7.735134678639779,19.249286076190955,26.56821548117193,14.170995998763917,
T7,104.4236579446287,130.13039359101387,76.44100585857915,115.08176537145695,48.140923240823064,
Pz,156.09256164140936,194.0441645595104,158.31178464701637,150.10556683877863,89.75443906166399,
T8,132.3936446762354,144.3412502961011,226.5166230751313,174.51895979953707,115.91468006521724,
AF4,21.49786350854711,7.956172202150792,3.5167645067273856,19.69518307097301,8.412494557368783,
AF3,19.071358941228553,7.735134678639779,19.249286076190955,26.56821548117193,14.170995998763917,
T7,104.4236579446287,130.13039359101387,76.44100585857915,115.08176537145695,48.140923240823064,
Pz,156.09256164140936,194.0441645595104,158.31178464701637,150.10556683877863,89.75443906166399,
T8,132.3936446762354,144.3412502961011,226.5166230751313,174.51895979953707,115.91468006521724,
AF4,21.49786350854711,7.956172202150792,3.5167645067273856,19.69518307097301,8.412494557368783,
AF3,19.071358941228553,7.735134678639779,19.249286076190955,26.56821548117193,14.170995998763917,
T7,104.4236579446287,130.13039359101387,76.44100585857915,115.08176537145695,48.140923240823064,
Pz,156.09256164140936,194.0441645595104,158.31178464701637,150.10556683877863,89.75443906166399,
T8,132.3936446762354,144.3412502961011,226.5166230751313,174.51895979953707,115.91468006521724,
AF4,21.49786350854711,7.956172202150792,3.5167645067273856,19.69518307097301,8.412494557368783,
AF3,19.071358941228553,7.735134678639779,19.249286076190955,26.56821548117193,14.170995998763917,
T7,104.4236579446287,130.13039359101387,76.44100585857915,115.08176537145695,48.140923240823064,
Pz,156.09256164140936,194.0441645595104,158.31178464701637,150.10556683877863,89.75443906166399,
T8,132.3936446762354,144.3412502961011,226.5166230751313,174.51895979953707,115.91468006521724,
AF4,21.49786350854711,7.956172202150792,3.5167645067273856,19.69518307097301,8.412494557368783,
AF3,19.071358941228553,7.735134678639779,19.249286076190955,26.56821548117193,14.170995998763917,
T7,104.4236579446287,130.13039359101387,76.44100585857915,115.08176537145695,48.140923240823064,
Pz,156.09256164140936,194.0441645595104,158.31178464701637,150.10556683877863,89.75443906166399,
T8,132.3936446762354,144.3412502961011,226.5166230751313,174.51895979953707,115.91468006521724,
AF4,21.49786350854711,7.956172202150792,3.5167645067273856,19.69518307097301,8.412494557368783,
AF3,19.071358941228553,7.735134678639779,19.249286076190955,26.56821548117193,14.170995998763917,
T7,104.4236579446287,130.13039359101387,76.44100585857915,115.08176537145695,48.140923240823064,
Pz,156.09256164140936,194.0441645595104,158.31178464701637,150.10556683877863,89.75443906166399,
T8,132.3936446762354,144.3412502961011,226.5166230751313,174.51895979953707,115.91468006521724,
AF4,21.49786350854711,7.956172202150792,3.5167645067273856,19.69518307097301,8.412494557368783,
AF3,19.071358941228553,7.735134678639779,19.249286076190955,26.56821548117193,14.170995998763917,
T7,104.4236579446287,130.13039359101387,76.44100585857915,115.08176537145695,48.140923240823064,
Pz,156.09256164140936,194.0441645595104,158.31178464701637,150.10556683877863,89.75443906166399,
T8,132.3936446762354,144.3412502961011,226.5166230751313,174.51895979953707,115.91468006521724,
AF4,21.49786350854711,7.956172202150792,3.5167645067273856,19.69518307097301,8.412494557368783,
AF3,19.071358941228553,7.735134678639779,19.249286076190955,26.56821548117193,14.170995998763917,
T7,104.4236579446287,130.13039359101387,76.44100585857915,115.08176537145695,48.140923240823064,
Pz,156.09256164140936,194.0441645595104,158.31178464701637,150.10556683877863,89.75443906166399,
T8,132.3936446762354,144.3412502961011,226.5166230751313,174.51895979953707,115.91468006521724,
AF4,21.49786350854711,7.956172202150792,3.5167645067273856,19.69518307097301,8.412494557368783,
AF3,19.071358941228553,7.735134678639779,19.249286076190955,26.56821548117193,14.170995998763917,
T7,104.4236579446287,130.13039359101387,76.44100585857915,115.08176537145695,48.140923240823064,
Pz,156.09256164140936,194.0441645595104,158.31178464701637,150.10556683877863,89.75443906166399,
T8,132.3936446762354,144.3412502961011,226.5166230751313,174.51895979953707,115.91468006521724,
AF4,21.49786350854711,7.956172202150792,3.5167645067273856,19.69518307097301,8.412494557368783,
AF3,19.071358941228553,7.735134678639779,19.249286076190955,26.56821548117193,14.170995998763917,
T7,104.4236579446287,130.13039359101387,76.44100585857915,115.08176537145695,48.140923240823064,
Pz,156.09256164140936,194.0441645595104,158.31178464701637,150.10556683877863,89.75443906166399,
T8,132.3936446762354,144.3412502961011,226.5166230751313,174.51895979953707,115.91468006521724,
AF4,21.49786350854711,7.956172202150792,3.5167645067273856,19.69518307097301,8.412494557368783,
AF3,19.071358941228553,7.735134678639779,19.249286076190955,26.56821548117193,14.170995998763917,
T7,104.4236579446287,130.13039359101387,76.44100585857915,115.08176537145695,48.140923240823064,
Pz,156.09256164140936,194.0441645595104,158.31178464701637,150.10556683877863,89.75443906166399,
T8,132.3936446762354,144.3412502961011,226.5166230751313,174.51895979953707,115.91468006521724,
AF4,21.49786350854711,7.956172202150792,3.5167645067273856,19.69518307097301,8.412494557368783,
AF3,19.071358941228553,7.735134678639779,19.249286076190955,26.56821548117193,14.170995998763917,
T7,104.4236579446287,130.13039359101387,76.44100585857915,115.08176537145695,48.140923240823064,
Pz,156.09256164140936,194.0441645595104,158.31178464701637,150.10556683877863,89.75443906166399,
T8,132.3936446762354,144.3412502961011,226.5166230751313,174.51895979953707,115.91468006521724,
AF4,21.49786350854711,7.956172202150792,3.5167645067273856,19.69518307097301,8.412494557368783,
AF3,19.071358941228553,7.735134678639779,19.249286076190955,26.56821548117193,14.170995998763917,
T7,104.4236579446287,130.13039359101387,76.44100585857915,115.08176537145695,48.140923240823064,
Pz,156.09256164140936,194.0441645595104,158.31178464701637,150.10556683877863,89.75443906166399,
T8,132.3936446762354,144.3412502961011,226.5166230751313,174.51895979953707,115.91468006521724,
AF4,21.49786350854711,7.956172202150792,3.5167645067273856,19.69518307097301,8.412494557368783,
AF3,19.071358941228553,7.735134678639779,19.249286076190955,26.56821548117193,14.170995998763917,
T7,104.4236579446287,130.13039359101387,76.44100585857915,115.08176537145695,48.140923240823064,
Pz,156.09256164140936,194.0441645595104,158.31178464701637,150.10556683877863,89.75443906166399,
T8,132.3936446762354,144.3412502961011,226.5166230751313,174.51895979953707,115.91468006521724,
AF4,21.49786350854711,7.956172202150792,3.5167645067273856,19.69518307097301,8.412494557368783,
AF3,19.071358941228553,7.735134678639779,19.249286076190955,26.56821548117193,14.170995998763917,
T7,104.4236579446287,130.13039359101387,76.44100585857915,115.08176537145695,48.140923240823064,
Pz,156.09256164140936,194.0441645595104,158.31178464701637,150.10556683877863,89.75443906166399,
T8,132.3936446762354,144.3412502961011,226.5166230751313,174.51895979953707,115.91468006521724,
AF4,21.49786350854711,7.956172202150792,3.5167645067273856,19.69518307097301,8.412494557368783,
AF3,19.071358941228553,7.735134678639779,19.249286076190955,26.56821548117193,14.170995998763917,
T7,104.4236579446287,130.13039359101387,76.44100585857915,115.08176537145695,48.140923240823064,
Pz,156.09256164140936,194.0441645595104,158.31178464701637,150.10556683877863,89.75443906166399,
T8,132.3936446762354,144.3412502961011,226.5166230751313,174.51895979953707,115.91468006521724,
AF4,21.49786350854711,7.956172202150792,3.5167645067273856,19.69518307097301,8.412494557368783,
AF3,19.071358941228553,7.735134678639779,19.249286076190955,26.56821548117193,14.170995998763917,
T7,104.4236579446287,130.13039359101387,76.44100585857915,115.08176537145695,48.140923240823064,
Pz,156.09256164140936,194.0441645595104,158.31178464701637,150.10556683877863,89.75443906166399,
T8,132.3936446762354,144.3412502961011,226.5166230751313,174.51895979953707,115.91468006521724,
AF4,21.49786350854711,7.956172202150792,3.5167645067273856,19.69518307097301,8.412494557368783,
AF3,19.071358941228553,7.735134678639779,19.249286076190955,26.56821548117193,14.170995998763917,
T7,104.4236579446287,130.13039359101387,76.44100585857915,115.08176537145695,48.140923240823064,
Pz,156.09256164140936,194.0441645595104,158.31178464701637,150.10556683877863,89.75443906166399,
T8,132.3936446762354,144.3412502961011,226.5166230751313,174.51895979953707,115.91468006521724,
AF4,21.49786350854711,7.956172202150792,3.5167645067273856,19.69518307097301,8.412494557368783,
AF3,19.071358941228553,7.735134678639779,19.249286076190955,26.56821548117193,14.170995998763917,
T7,104.4236579446287,130.13039359101387,76.44100585857915,115.08176537145695,48.140923240823064,
Pz,156.09256164140936,194.0441645595104,158.31178464701637,150.10556683877863,89.75443906166399,
T8,132.3936446762354,144.3412502961011,226.5166230751313,174.51895979953707,115.91468006521724,
AF4,21.49786350854711,7.956172202150792,3.5167645067273856,19.69518307097301,8.412494557368783,
AF3,19.071358941228553,7.735134678639779,19.249286076190955,26.56821548117193,14.170995998763917,
T7,104.4236579446287,130.13039359101387,76.44100585857915,115.08176537145695,48.140923240823064,
Pz,156.09256164140936,194.0441645595104,158.31178464701637,150.10556683877863,89.75443906166399,
T8,132.3936446762354,144.3412502961011,226.5166230751313,174.51895979953707,115.91468006521724,
AF4,21.49786350854711,7.956172202150792,3.5167645067273856,19.69518307097301,8.412494557368783,
AF3,19.071358941228553,7.735134678639779,19.249286076190955,26.56821548117193,14.170995998763917,
T7,104.4236579446287,130.13039359101387,76.44100585857915,115.08176537145695,48.140923240823064,
Pz,156.09256164140936,194.0441645595104,158.31178464701637,150.10556683877863,89.75443906166399,
T8,132.3936446762354,144.3412502961011,226.5166230751313,174.51895979953707,115.91468006521724,
AF4,21.49786350854711,7.956172202150792,3.5167645067273856,19.69518307097301,8.412494557368783,
AF3,19.071358941228553,7.735134678639779,19.249286076190955,26.56821548117193,14.170995998763917,
T7,104.4236579446287,130.13039359101387,76.44100585857915,115.08176537145695,48.140923240823064,
Pz,156.09256164140936,194.0441645595104,158.31178464701637,150.10556683877863,89.75443906166399,
T8,132.3936446762354,144.3412502961011,226.5166230751313,174.51895979953707,115.91468006521724,
AF4,21.49786350854711,7.956172202150792,3.5167645067273856,19.69518307097301,8.412494557368783,
AF3,19.071358941228553,7.735134678639779,19.249286076190955,26.56821548117193,14.170995998763917,
T7,104.4236579446287,130.13039359101387,76.44100585857915,115.08176537145695,48.140923240823064,
Pz,156.09256164140936,194.0441645595104,158.31178464701637,150.10556683877863,89.75443906166399,
T8,132.3936446762354,144.3412502961011,226.5166230751313,174.51895979953707,115.91468006521724,
AF4,21.49786350854711,7.956172202150792,3.5167645067273856,19.69518307097301,8.412494557368783,
AF3,19.071358941228553,7.735134678639779,19.249286076190955,26.56821548117193,14.170995998763917,
T7,104.4236579446287,130.13039359101387,76.44100585857915,115.08176537145695,48.140923240823064,
Pz,156.09256164140936,194.0441645595104,158.31178464701637,150.10556683877863,89.75443906166399,
T8,132.3936446762354,144.3412502961011,226.5166230751313,174.51895979953707,115.91468006521724,
AF4,21.49786350854711,7.956172202150792,3.5167645067273856,19.69518307097301,8.412494557368783,
AF3,19.071358941228553,7.735134678639779,19.249286076190955,26.56821548117193,14.170995998763917,
T7,104.4236579446287,130.13039359101387,76.44100585857915,115.08176537145695,48.140923240823064,
Pz,156.09256164140936,194.0441645595104,158.31178464701637,150.10556683877863,89.75443906166399,
T8,132.3936446762354,144.3412502961011,226.5166230751313,174.51895979953707,115.91468006521724,
AF4,21.49786350854711,7.956172202150792,3.5167645067273856,19.69518307097301,8.412494557368783,
AF3,19.071358941228553,7.735134678639779,19.249286076190955,26.56821548117193,14.170995998763917,
T7,104.4236579446287,130.13039359101387,76.44100585857915,115.08176537145695,48.140923240823064,
Pz,156.09256164140936,194.0441645595104,158.31178464701637,150.10556683877863,89.75443906166399,
T8,132.3936446762354,144.3412502961011,226.5166230751313,174.51895979953707,115.91468006521724,
AF4,21.49786350854711,7.956172202150792,3.5167645067273856,19.69518307097301,8.412494557368783,
AF3,19.071358941228553,7.735134678639779,19.249286076190955,26.56821548117193,14.170995998763917,
T7,104.4236579446287,130.13039359101387,76.44100585857915,115.08176537145695,48.140923240823064,
Pz,156.09256164140936,194.0441645595104,158.31178464701637,150.10556683877863,89.75443906166399,
T8,132.3936446762354,144.3412502961011,226.5166230751313,174.51895979953707,115.91468006521724,
AF4,21.49786350854711,7.956172202150792,3.5167645067273856,19.69518307097301,8.412494557368783,
AF3,19.071358941228553,7.735134678639779,19.249286076190955,26.56821548117193,14.170995998763917,
T7,104.4236579446287,130.13039359101387,76.44100585857915,115.08176537145695,48.140923240823064,
Pz,156.09256164140936,194.0441645595104,158.31178464701637,150.10556683877863,89.75443906166399,
T8,132.3936446762354,144.3412502961011,226.5166230751313,174.51895979953707,115.91468006521724,
AF4,21.49786350854711,7.956172202150792,3.5167645067273856,19.69518307097301,8.412494557368783,
AF3,19.071358941228553,7.735134678639779,19.249286076190955,26.56821548117193,14.170995998763917,
T7,104.4236579446287,130.13039359101387,76.44100585857915,115.08176537145695,48.140923240823064,
Pz,156.09256164140936,194.0441645595104,158.31178464701637,150.10556683877863,89.75443906166399,
T8,132.3936446762354,144.3412502961011,226.5166230751313,174.51895979953707,115.91468006521724,
AF4,21.49786350854711,7.956172202150792,3.5167645067273856,19.69518307097301,8.412494557368783,
AF3,19.071358941228553,7.735134678639779,19.249286076190955,26.56821548117193,14.170995998763917,
T7,104.4236579446287,130.13039359101387,76.44100585857915,115.08176537145695,48.140923240823064,
Pz,156.09256164140936,194.0441645595104,158.31178464701637,150.10556683877863,89.75443906166399,
T8,132.3936446762354,144.3412502961011,226.5166230751313,174.51895979953707,115.91468006521724,
AF4,21.49786350854711,7.956172202150792,3.5167645067273856,19.69518307097301,8.412494557368783,
AF3,21.95757564303705,12.362113309922782,21.1203615448559,33.52309051093104,15.60114802093258,
T7,29.28530124052741,103.85466944027684,101.95456834404216,127.56067858311015,60.52686858947088,
Pz,74.90558138684554,178.4097069797075,234.06789859310797,188.26677838846436,162.74725313748465,
T8,42.53659702916545,109.98949253558307,148.40271063012892,153.15328845808898,232.95562451309019,
AF4,6.661065047868696,4.655863310049328,8.89324487948793,18.368157324852554,10.597517425900142,
AF3,21.95757564303705,12.362113309922782,21.1203615448559,33.52309051093104,15.60114802093258,
T7,29.28530124052741,103.85466944027684,101.95456834404216,127.56067858311015,60.52686858947088,
Pz,74.90558138684554,178.4097069797075,234.06789859310797,188.26677838846436,162.74725313748465,
T8,42.53659702916545,109.98949253558307,148.40271063012892,153.15328845808898,232.95562451309019,
AF4,6.661065047868696,4.655863310049328,8.89324487948793,18.368157324852554,10.597517425900142,
AF3,21.95757564303705,12.362113309922782,21.1203615448559,33.52309051093104,15.60114802093258,
T7,29.28530124052741,103.85466944027684,101.95456834404216,127.56067858311015,60.52686858947088,
Pz,74.90558138684554,178.4097069797075,234.06789859310797,188.26677838846436,162.74725313748465,
T8,42.53659702916545,109.98949253558307,148.40271063012892,153.15328845808898,232.95562451309019,
AF4,6.661065047868696,4.655863310049328,8.89324487948793,18.368157324852554,10.597517425900142,
AF3,21.95757564303705,12.362113309922782,21.1203615448559,33.52309051093104,15.60114802093258,
T7,29.28530124052741,103.85466944027684,101.95456834404216,127.56067858311015,60.52686858947088,
Pz,74.90558138684554,178.4097069797075,234.06789859310797,188.26677838846436,162.74725313748465,
T8,42.53659702916545,109.98949253558307,148.40271063012892,153.15328845808898,232.95562451309019,
AF4,6.661065047868696,4.655863310049328,8.89324487948793,18.368157324852554,10.597517425900142,
AF3,21.95757564303705,12.362113309922782,21.1203615448559,33.52309051093104,15.60114802093258,
T7,29.28530124052741,103.85466944027684,101.95456834404216,127.56067858311015,60.52686858947088,
Pz,74.90558138684554,178.4097069797075,234.06789859310797,188.26677838846436,162.74725313748465,
T8,42.53659702916545,109.98949253558307,148.40271063012892,153.15328845808898,232.95562451309019,
AF4,6.661065047868696,4.655863310049328,8.89324487948793,18.368157324852554,10.597517425900142,
AF3,21.95757564303705,12.362113309922782,21.1203615448559,33.52309051093104,15.60114802093258,
T7,29.28530124052741,103.85466944027684,101.95456834404216,127.56067858311015,60.52686858947088,
Pz,74.90558138684554,178.4097069797075,234.06789859310797,188.26677838846436,162.74725313748465,
T8,42.53659702916545,109.98949253558307,148.40271063012892,153.15328845808898,232.95562451309019,
AF4,6.661065047868696,4.655863310049328,8.89324487948793,18.368157324852554,10.597517425900142,
AF3,21.95757564303705,12.362113309922782,21.1203615448559,33.52309051093104,15.60114802093258,
T7,29.28530124052741,103.85466944027684,101.95456834404216,127.56067858311015,60.52686858947088,
Pz,74.90558138684554,178.4097069797075,234.06789859310797,188.26677838846436,162.74725313748465,
T8,42.53659702916545,109.98949253558307,148.40271063012892,153.15328845808898,232.95562451309019,
AF4,6.661065047868696,4.655863310049328,8.89324487948793,18.368157324852554,10.597517425900142,
AF3,21.95757564303705,12.362113309922782,21.1203615448559,33.52309051093104,15.60114802093258,
T7,29.28530124052741,103.85466944027684,101.95456834404216,127.56067858311015,60.52686858947088,
Pz,74.90558138684554,178.4097069797075,234.06789859310797,188.26677838846436,162.74725313748465,
T8,42.53659702916545,109.98949253558307,148.40271063012892,153.15328845808898,232.95562451309019,
AF4,6.661065047868696,4.655863310049328,8.89324487948793,18.368157324852554,10.597517425900142,
AF3,21.95757564303705,12.362113309922782,21.1203615448559,33.52309051093104,15.60114802093258,
T7,29.28530124052741,103.85466944027684,101.95456834404216,127.56067858311015,60.52686858947088,
Pz,74.90558138684554,178.4097069797075,234.06789859310797,188.26677838846436,162.74725313748465,
T8,42.53659702916545,109.98949253558307,148.40271063012892,153.15328845808898,232.95562451309019,
AF4,6.661065047868696,4.655863310049328,8.89324487948793,18.368157324852554,10.597517425900142,
AF3,21.95757564303705,12.362113309922782,21.1203615448559,33.52309051093104,15.60114802093258,
T7,29.28530124052741,103.85466944027684,101.95456834404216,127.56067858311015,60.52686858947088,
Pz,74.90558138684554,178.4097069797075,234.06789859310797,188.26677838846436,162.74725313748465,
T8,42.53659702916545,109.98949253558307,148.40271063012892,153.15328845808898,232.95562451309019,
AF4,6.661065047868696,4.655863310049328,8.89324487948793,18.368157324852554,10.597517425900142,
AF3,21.95757564303705,12.362113309922782,21.1203615448559,33.52309051093104,15.60114802093258,
T7,29.28530124052741,103.85466944027684,101.95456834404216,127.56067858311015,60.52686858947088,
Pz,74.90558138684554,178.4097069797075,234.06789859310797,188.26677838846436,162.74725313748465,
T8,42.53659702916545,109.98949253558307,148.40271063012892,153.15328845808898,232.95562451309019,
AF4,6.661065047868696,4.655863310049328,8.89324487948793,18.368157324852554,10.597517425900142,
AF3,21.95757564303705,12.362113309922782,21.1203615448559,33.52309051093104,15.60114802093258,
T7,29.28530124052741,103.85466944027684,101.95456834404216,127.56067858311015,60.52686858947088,
Pz,74.90558138684554,178.4097069797075,234.06789859310797,188.26677838846436,162.74725313748465,
T8,42.53659702916545,109.98949253558307,148.40271063012892,153.15328845808898,232.95562451309019,
AF4,6.661065047868696,4.655863310049328,8.89324487948793,18.368157324852554,10.597517425900142,
AF3,21.95757564303705,12.362113309922782,21.1203615448559,33.52309051093104,15.60114802093258,
T7,29.28530124052741,103.85466944027684,101.95456834404216,127.56067858311015,60.52686858947088,
Pz,74.90558138684554,178.4097069797075,234.06789859310797,188.26677838846436,162.74725313748465,
T8,42.53659702916545,109.98949253558307,148.40271063012892,153.15328845808898,232.95562451309019,
AF4,6.661065047868696,4.655863310049328,8.89324487948793,18.368157324852554,10.597517425900142,
AF3,21.95757564303705,12.362113309922782,21.1203615448559,33.52309051093104,15.60114802093258,
T7,29.28530124052741,103.85466944027684,101.95456834404216,127.56067858311015,60.52686858947088,
Pz,74.90558138684554,178.4097069797075,234.06789859310797,188.26677838846436,162.74725313748465,
T8,42.53659702916545,109.98949253558307,148.40271063012892,153.15328845808898,232.95562451309019,
AF4,6.661065047868696,4.655863310049328,8.89324487948793,18.368157324852554,10.597517425900142,
AF3,21.95757564303705,12.362113309922782,21.1203615448559,33.52309051093104,15.60114802093258,
T7,29.28530124052741,103.85466944027684,101.95456834404216,127.56067858311015,60.52686858947088,
Pz,74.90558138684554,178.4097069797075,234.06789859310797,188.26677838846436,162.74725313748465,
T8,42.53659702916545,109.98949253558307,148.40271063012892,153.15328845808898,232.95562451309019,
AF4,6.661065047868696,4.655863310049328,8.89324487948793,18.368157324852554,10.597517425900142,
AF3,21.95757564303705,12.362113309922782,21.1203615448559,33.52309051093104,15.60114802093258,
T7,29.28530124052741,103.85466944027684,101.95456834404216,127.56067858311015,60.52686858947088,
Pz,74.90558138684554,178.4097069797075,234.06789859310797,188.26677838846436,162.74725313748465,
T8,42.53659702916545,109.98949253558307,148.40271063012892,153.15328845808898,232.95562451309019,
AF4,6.661065047868696,4.655863310049328,8.89324487948793,18.368157324852554,10.597517425900142,
AF3,21.95757564303705,12.362113309922782,21.1203615448559,33.52309051093104,15.60114802093258,
T7,29.28530124052741,103.85466944027684,101.95456834404216,127.56067858311015,60.52686858947088,
Pz,74.90558138684554,178.4097069797075,234.06789859310797,188.26677838846436,162.74725313748465,
T8,42.53659702916545,109.98949253558307,148.40271063012892,153.15328845808898,232.95562451309019,
AF4,6.661065047868696,4.655863310049328,8.89324487948793,18.368157324852554,10.597517425900142,
AF3,21.95757564303705,12.362113309922782,21.1203615448559,33.52309051093104,15.60114802093258,
T7,29.28530124052741,103.85466944027684,101.95456834404216,127.56067858311015,60.52686858947088,
Pz,74.90558138684554,178.4097069797075,234.06789859310797,188.26677838846436,162.74725313748465,
T8,42.53659702916545,109.98949253558307,148.40271063012892,153.15328845808898,232.95562451309019,
AF4,6.661065047868696,4.655863310049328,8.89324487948793,18.368157324852554,10.597517425900142,
AF3,21.95757564303705,12.362113309922782,21.1203615448559,33.52309051093104,15.60114802093258,
T7,29.28530124052741,103.85466944027684,101.95456834404216,127.56067858311015,60.52686858947088,
Pz,74.90558138684554,178.4097069797075,234.06789859310797,188.26677838846436,162.74725313748465,
T8,42.53659702916545,109.98949253558307,148.40271063012892,153.15328845808898,232.95562451309019,
AF4,6.661065047868696,4.655863310049328,8.89324487948793,18.368157324852554,10.597517425900142,
AF3,21.95757564303705,12.362113309922782,21.1203615448559,33.52309051093104,15.60114802093258,
T7,29.28530124052741,103.85466944027684,101.95456834404216,127.56067858311015,60.52686858947088,
Pz,74.90558138684554,178.4097069797075,234.06789859310797,188.26677838846436,162.74725313748465,
T8,42.53659702916545,109.98949253558307,148.40271063012892,153.15328845808898,232.95562451309019,
AF4,6.661065047868696,4.655863310049328,8.89324487948793,18.368157324852554,10.597517425900142,
AF3,21.95757564303705,12.362113309922782,21.1203615448559,33.52309051093104,15.60114802093258,
T7,29.28530124052741,103.85466944027684,101.95456834404216,127.56067858311015,60.52686858947088,
Pz,74.90558138684554,178.4097069797075,234.06789859310797,188.26677838846436,162.74725313748465,
T8,42.53659702916545,109.98949253558307,148.40271063012892,153.15328845808898,232.95562451309019,
AF4,6.661065047868696,4.655863310049328,8.89324487948793,18.368157324852554,10.597517425900142,
AF3,21.95757564303705,12.362113309922782,21.1203615448559,33.52309051093104,15.60114802093258,
T7,29.28530124052741,103.85466944027684,101.95456834404216,127.56067858311015,60.52686858947088,
Pz,74.90558138684554,178.4097069797075,234.06789859310797,188.26677838846436,162.74725313748465,
T8,42.53659702916545,109.98949253558307,148.40271063012892,153.15328845808898,232.95562451309019,
AF4,6.661065047868696,4.655863310049328,8.89324487948793,18.368157324852554,10.597517425900142,
AF3,21.95757564303705,12.362113309922782,21.1203615448559,33.52309051093104,15.60114802093258,
T7,29.28530124052741,103.85466944027684,101.95456834404216,127.56067858311015,60.52686858947088,
