Channel , Theta ,Alpha ,Low beta ,High beta , Gamma 
AF3,224.99404391455107,22.057523375194776,216.2317409254339,63.35228933766236,50.92756609862771,
T7,340.98204687321527,38.78694285886233,227.30998172185352,30.728439809197713,77.58894592525623,
Pz,13.060001950317014,2.8027927394610543,58.76875382575174,3.444951321975601,13.44832631443991,
T8,94.61283464456002,17.097298028335448,484.589858676889,79.28422201031911,36.88036018891064,
AF4,39.90697427668934,22.563291803882585,369.854853591019,96.47075026406503,42.70229024033517,
AF3,224.99404391455107,22.057523375194776,216.2317409254339,63.35228933766236,50.92756609862771,
T7,340.98204687321527,38.78694285886233,227.30998172185352,30.728439809197713,77.58894592525623,
Pz,13.060001950317014,2.8027927394610543,58.76875382575174,3.444951321975601,13.44832631443991,
T8,94.61283464456002,17.097298028335448,484.589858676889,79.28422201031911,36.88036018891064,
AF4,39.90697427668934,22.563291803882585,369.854853591019,96.47075026406503,42.70229024033517,
AF3,224.99404391455107,22.057523375194776,216.2317409254339,63.35228933766236,50.92756609862771,
T7,340.98204687321527,38.78694285886233,227.30998172185352,30.728439809197713,77.58894592525623,
Pz,13.060001950317014,2.8027927394610543,58.76875382575174,3.444951321975601,13.44832631443991,
T8,94.61283464456002,17.097298028335448,484.589858676889,79.28422201031911,36.88036018891064,
AF4,39.90697427668934,22.563291803882585,369.854853591019,96.47075026406503,42.70229024033517,
AF3,224.99404391455107,22.057523375194776,216.2317409254339,63.35228933766236,50.92756609862771,
T7,340.98204687321527,38.78694285886233,227.30998172185352,30.728439809197713,77.58894592525623,
Pz,13.060001950317014,2.8027927394610543,58.76875382575174,3.444951321975601,13.44832631443991,
T8,94.61283464456002,17.097298028335448,484.589858676889,79.28422201031911,36.88036018891064,
AF4,39.90697427668934,22.563291803882585,369.854853591019,96.47075026406503,42.70229024033517,
AF3,224.99404391455107,22.057523375194776,216.2317409254339,63.35228933766236,50.92756609862771,
T7,340.98204687321527,38.78694285886233,227.30998172185352,30.728439809197713,77.58894592525623,
Pz,13.060001950317014,2.8027927394610543,58.76875382575174,3.444951321975601,13.44832631443991,
T8,94.61283464456002,17.097298028335448,484.589858676889,79.28422201031911,36.88036018891064,
AF4,39.90697427668934,22.563291803882585,369.854853591019,96.47075026406503,42.70229024033517,
AF3,224.99404391455107,22.057523375194776,216.2317409254339,63.35228933766236,50.92756609862771,
T7,340.98204687321527,38.78694285886233,227.30998172185352,30.728439809197713,77.58894592525623,
Pz,13.060001950317014,2.8027927394610543,58.76875382575174,3.444951321975601,13.44832631443991,
T8,94.61283464456002,17.097298028335448,484.589858676889,79.28422201031911,36.88036018891064,
AF4,39.90697427668934,22.563291803882585,369.854853591019,96.47075026406503,42.70229024033517,
AF3,224.99404391455107,22.057523375194776,216.2317409254339,63.35228933766236,50.92756609862771,
T7,340.98204687321527,38.78694285886233,227.30998172185352,30.728439809197713,77.58894592525623,
Pz,13.060001950317014,2.8027927394610543,58.76875382575174,3.444951321975601,13.44832631443991,
T8,94.61283464456002,17.097298028335448,484.589858676889,79.28422201031911,36.88036018891064,
AF4,39.90697427668934,22.563291803882585,369.854853591019,96.47075026406503,42.70229024033517,
AF3,224.99404391455107,22.057523375194776,216.2317409254339,63.35228933766236,50.92756609862771,
T7,340.98204687321527,38.78694285886233,227.30998172185352,30.728439809197713,77.58894592525623,
Pz,13.060001950317014,2.8027927394610543,58.76875382575174,3.444951321975601,13.44832631443991,
T8,94.61283464456002,17.097298028335448,484.589858676889,79.28422201031911,36.88036018891064,
AF4,39.90697427668934,22.563291803882585,369.854853591019,96.47075026406503,42.70229024033517,
AF3,224.99404391455107,22.057523375194776,216.2317409254339,63.35228933766236,50.92756609862771,
T7,340.98204687321527,38.78694285886233,227.30998172185352,30.728439809197713,77.58894592525623,
Pz,13.060001950317014,2.8027927394610543,58.76875382575174,3.444951321975601,13.44832631443991,
T8,94.61283464456002,17.097298028335448,484.589858676889,79.28422201031911,36.88036018891064,
AF4,39.90697427668934,22.563291803882585,369.854853591019,96.47075026406503,42.70229024033517,
AF3,224.99404391455107,22.057523375194776,216.2317409254339,63.35228933766236,50.92756609862771,
T7,340.98204687321527,38.78694285886233,227.30998172185352,30.728439809197713,77.58894592525623,
Pz,13.060001950317014,2.8027927394610543,58.76875382575174,3.444951321975601,13.44832631443991,
T8,94.61283464456002,17.097298028335448,484.589858676889,79.28422201031911,36.88036018891064,
AF4,39.90697427668934,22.563291803882585,369.854853591019,96.47075026406503,42.70229024033517,
AF3,224.99404391455107,22.057523375194776,216.2317409254339,63.35228933766236,50.92756609862771,
T7,340.98204687321527,38.78694285886233,227.30998172185352,30.728439809197713,77.58894592525623,
Pz,13.060001950317014,2.8027927394610543,58.76875382575174,3.444951321975601,13.44832631443991,
T8,94.61283464456002,17.097298028335448,484.589858676889,79.28422201031911,36.88036018891064,
AF4,39.90697427668934,22.563291803882585,369.854853591019,96.47075026406503,42.70229024033517,
AF3,224.99404391455107,22.057523375194776,216.2317409254339,63.35228933766236,50.92756609862771,
T7,340.98204687321527,38.78694285886233,227.30998172185352,30.728439809197713,77.58894592525623,
Pz,13.060001950317014,2.8027927394610543,58.76875382575174,3.444951321975601,13.44832631443991,
T8,94.61283464456002,17.097298028335448,484.589858676889,79.28422201031911,36.88036018891064,
AF4,39.90697427668934,22.563291803882585,369.854853591019,96.47075026406503,42.70229024033517,
AF3,224.99404391455107,22.057523375194776,216.2317409254339,63.35228933766236,50.92756609862771,
T7,340.98204687321527,38.78694285886233,227.30998172185352,30.728439809197713,77.58894592525623,
Pz,13.060001950317014,2.8027927394610543,58.76875382575174,3.444951321975601,13.44832631443991,
T8,94.61283464456002,17.097298028335448,484.589858676889,79.28422201031911,36.88036018891064,
AF4,39.90697427668934,22.563291803882585,369.854853591019,96.47075026406503,42.70229024033517,
AF3,224.99404391455107,22.057523375194776,216.2317409254339,63.35228933766236,50.92756609862771,
T7,340.98204687321527,38.78694285886233,227.30998172185352,30.728439809197713,77.58894592525623,
Pz,13.060001950317014,2.8027927394610543,58.76875382575174,3.444951321975601,13.44832631443991,
T8,94.61283464456002,17.097298028335448,484.589858676889,79.28422201031911,36.88036018891064,
AF4,39.90697427668934,22.563291803882585,369.854853591019,96.47075026406503,42.70229024033517,
AF3,224.99404391455107,22.057523375194776,216.2317409254339,63.35228933766236,50.92756609862771,
T7,340.98204687321527,38.78694285886233,227.30998172185352,30.728439809197713,77.58894592525623,
Pz,13.060001950317014,2.8027927394610543,58.76875382575174,3.444951321975601,13.44832631443991,
T8,94.61283464456002,17.097298028335448,484.589858676889,79.28422201031911,36.88036018891064,
AF4,39.90697427668934,22.563291803882585,369.854853591019,96.47075026406503,42.70229024033517,
AF3,224.99404391455107,22.057523375194776,216.2317409254339,63.35228933766236,50.92756609862771,
T7,340.98204687321527,38.78694285886233,227.30998172185352,30.728439809197713,77.58894592525623,
Pz,13.060001950317014,2.8027927394610543,58.76875382575174,3.444951321975601,13.44832631443991,
T8,94.61283464456002,17.097298028335448,484.589858676889,79.28422201031911,36.88036018891064,
AF4,39.90697427668934,22.563291803882585,369.854853591019,96.47075026406503,42.70229024033517,
AF3,224.99404391455107,22.057523375194776,216.2317409254339,63.35228933766236,50.92756609862771,
T7,340.98204687321527,38.78694285886233,227.30998172185352,30.728439809197713,77.58894592525623,
Pz,13.060001950317014,2.8027927394610543,58.76875382575174,3.444951321975601,13.44832631443991,
T8,94.61283464456002,17.097298028335448,484.589858676889,79.28422201031911,36.88036018891064,
AF4,39.90697427668934,22.563291803882585,369.854853591019,96.47075026406503,42.70229024033517,
AF3,224.99404391455107,22.057523375194776,216.2317409254339,63.35228933766236,50.92756609862771,
T7,340.98204687321527,38.78694285886233,227.30998172185352,30.728439809197713,77.58894592525623,
Pz,13.060001950317014,2.8027927394610543,58.76875382575174,3.444951321975601,13.44832631443991,
T8,94.61283464456002,17.097298028335448,484.589858676889,79.28422201031911,36.88036018891064,
AF4,39.90697427668934,22.563291803882585,369.854853591019,96.47075026406503,42.70229024033517,
AF3,224.99404391455107,22.057523375194776,216.2317409254339,63.35228933766236,50.92756609862771,
T7,340.98204687321527,38.78694285886233,227.30998172185352,30.728439809197713,77.58894592525623,
Pz,13.060001950317014,2.8027927394610543,58.76875382575174,3.444951321975601,13.44832631443991,
T8,94.61283464456002,17.097298028335448,484.589858676889,79.28422201031911,36.88036018891064,
AF4,39.90697427668934,22.563291803882585,369.854853591019,96.47075026406503,42.70229024033517,
AF3,224.99404391455107,22.057523375194776,216.2317409254339,63.35228933766236,50.92756609862771,
T7,340.98204687321527,38.78694285886233,227.30998172185352,30.728439809197713,77.58894592525623,
Pz,13.060001950317014,2.8027927394610543,58.76875382575174,3.444951321975601,13.44832631443991,
T8,94.61283464456002,17.097298028335448,484.589858676889,79.28422201031911,36.88036018891064,
AF4,39.90697427668934,22.563291803882585,369.854853591019,96.47075026406503,42.70229024033517,
AF3,224.99404391455107,22.057523375194776,216.2317409254339,63.35228933766236,50.92756609862771,
T7,340.98204687321527,38.78694285886233,227.30998172185352,30.728439809197713,77.58894592525623,
Pz,13.060001950317014,2.8027927394610543,58.76875382575174,3.444951321975601,13.44832631443991,
T8,94.61283464456002,17.097298028335448,484.589858676889,79.28422201031911,36.88036018891064,
AF4,39.90697427668934,22.563291803882585,369.854853591019,96.47075026406503,42.70229024033517,
AF3,224.99404391455107,22.057523375194776,216.2317409254339,63.35228933766236,50.92756609862771,
T7,340.98204687321527,38.78694285886233,227.30998172185352,30.728439809197713,77.58894592525623,
Pz,13.060001950317014,2.8027927394610543,58.76875382575174,3.444951321975601,13.44832631443991,
T8,94.61283464456002,17.097298028335448,484.589858676889,79.28422201031911,36.88036018891064,
AF4,39.90697427668934,22.563291803882585,369.854853591019,96.47075026406503,42.70229024033517,
AF3,224.99404391455107,22.057523375194776,216.2317409254339,63.35228933766236,50.92756609862771,
T7,340.98204687321527,38.78694285886233,227.30998172185352,30.728439809197713,77.58894592525623,
Pz,13.060001950317014,2.8027927394610543,58.76875382575174,3.444951321975601,13.44832631443991,
T8,94.61283464456002,17.097298028335448,484.589858676889,79.28422201031911,36.88036018891064,
AF4,39.90697427668934,22.563291803882585,369.854853591019,96.47075026406503,42.70229024033517,
AF3,224.99404391455107,22.057523375194776,216.2317409254339,63.35228933766236,50.92756609862771,
T7,340.98204687321527,38.78694285886233,227.30998172185352,30.728439809197713,77.58894592525623,
Pz,13.060001950317014,2.8027927394610543,58.76875382575174,3.444951321975601,13.44832631443991,
T8,94.61283464456002,17.097298028335448,484.589858676889,79.28422201031911,36.88036018891064,
AF4,39.90697427668934,22.563291803882585,369.854853591019,96.47075026406503,42.70229024033517,
AF3,224.99404391455107,22.057523375194776,216.2317409254339,63.35228933766236,50.92756609862771,
T7,340.98204687321527,38.78694285886233,227.30998172185352,30.728439809197713,77.58894592525623,
Pz,13.060001950317014,2.8027927394610543,58.76875382575174,3.444951321975601,13.44832631443991,
T8,94.61283464456002,17.097298028335448,484.589858676889,79.28422201031911,36.88036018891064,
AF4,39.90697427668934,22.563291803882585,369.854853591019,96.47075026406503,42.70229024033517,
AF3,224.99404391455107,22.057523375194776,216.2317409254339,63.35228933766236,50.92756609862771,
T7,340.98204687321527,38.78694285886233,227.30998172185352,30.728439809197713,77.58894592525623,
Pz,13.060001950317014,2.8027927394610543,58.76875382575174,3.444951321975601,13.44832631443991,
T8,94.61283464456002,17.097298028335448,484.589858676889,79.28422201031911,36.88036018891064,
AF4,39.90697427668934,22.563291803882585,369.854853591019,96.47075026406503,42.70229024033517,
AF3,224.99404391455107,22.057523375194776,216.2317409254339,63.35228933766236,50.92756609862771,
T7,340.98204687321527,38.78694285886233,227.30998172185352,30.728439809197713,77.58894592525623,
Pz,13.060001950317014,2.8027927394610543,58.76875382575174,3.444951321975601,13.44832631443991,
T8,94.61283464456002,17.097298028335448,484.589858676889,79.28422201031911,36.88036018891064,
AF4,39.90697427668934,22.563291803882585,369.854853591019,96.47075026406503,42.70229024033517,
AF3,224.99404391455107,22.057523375194776,216.2317409254339,63.35228933766236,50.92756609862771,
T7,340.98204687321527,38.78694285886233,227.30998172185352,30.728439809197713,77.58894592525623,
Pz,13.060001950317014,2.8027927394610543,58.76875382575174,3.444951321975601,13.44832631443991,
T8,94.61283464456002,17.097298028335448,484.589858676889,79.28422201031911,36.88036018891064,
AF4,39.90697427668934,22.563291803882585,369.854853591019,96.47075026406503,42.70229024033517,
AF3,224.99404391455107,22.057523375194776,216.2317409254339,63.35228933766236,50.92756609862771,
T7,340.98204687321527,38.78694285886233,227.30998172185352,30.728439809197713,77.58894592525623,
Pz,13.060001950317014,2.8027927394610543,58.76875382575174,3.444951321975601,13.44832631443991,
T8,94.61283464456002,17.097298028335448,484.589858676889,79.28422201031911,36.88036018891064,
AF4,39.90697427668934,22.563291803882585,369.854853591019,96.47075026406503,42.70229024033517,
AF3,224.99404391455107,22.057523375194776,216.2317409254339,63.35228933766236,50.92756609862771,
T7,340.98204687321527,38.78694285886233,227.30998172185352,30.728439809197713,77.58894592525623,
Pz,13.060001950317014,2.8027927394610543,58.76875382575174,3.444951321975601,13.44832631443991,
T8,94.61283464456002,17.097298028335448,484.589858676889,79.28422201031911,36.88036018891064,
AF4,39.90697427668934,22.563291803882585,369.854853591019,96.47075026406503,42.70229024033517,
AF3,224.99404391455107,22.057523375194776,216.2317409254339,63.35228933766236,50.92756609862771,
T7,340.98204687321527,38.78694285886233,227.30998172185352,30.728439809197713,77.58894592525623,
Pz,13.060001950317014,2.8027927394610543,58.76875382575174,3.444951321975601,13.44832631443991,
T8,94.61283464456002,17.097298028335448,484.589858676889,79.28422201031911,36.88036018891064,
AF4,39.90697427668934,22.563291803882585,369.854853591019,96.47075026406503,42.70229024033517,
AF3,224.99404391455107,22.057523375194776,216.2317409254339,63.35228933766236,50.92756609862771,
T7,340.98204687321527,38.78694285886233,227.30998172185352,30.728439809197713,77.58894592525623,
Pz,13.060001950317014,2.8027927394610543,58.76875382575174,3.444951321975601,13.44832631443991,
T8,94.61283464456002,17.097298028335448,484.589858676889,79.28422201031911,36.88036018891064,
AF4,39.90697427668934,22.563291803882585,369.854853591019,96.47075026406503,42.70229024033517,
AF3,224.99404391455107,22.057523375194776,216.2317409254339,63.35228933766236,50.92756609862771,
T7,340.98204687321527,38.78694285886233,227.30998172185352,30.728439809197713,77.58894592525623,
Pz,13.060001950317014,2.8027927394610543,58.76875382575174,3.444951321975601,13.44832631443991,
T8,94.61283464456002,17.097298028335448,484.589858676889,79.28422201031911,36.88036018891064,
AF4,39.90697427668934,22.563291803882585,369.854853591019,96.47075026406503,42.70229024033517,
AF3,224.99404391455107,22.057523375194776,216.2317409254339,63.35228933766236,50.92756609862771,
T7,340.98204687321527,38.78694285886233,227.30998172185352,30.728439809197713,77.58894592525623,
Pz,13.060001950317014,2.8027927394610543,58.76875382575174,3.444951321975601,13.44832631443991,
T8,94.61283464456002,17.097298028335448,484.589858676889,79.28422201031911,36.88036018891064,
AF4,39.90697427668934,22.563291803882585,369.854853591019,96.47075026406503,42.70229024033517,
AF3,224.99404391455107,22.057523375194776,216.2317409254339,63.35228933766236,50.92756609862771,
T7,340.98204687321527,38.78694285886233,227.30998172185352,30.728439809197713,77.58894592525623,
Pz,13.060001950317014,2.8027927394610543,58.76875382575174,3.444951321975601,13.44832631443991,
T8,94.61283464456002,17.097298028335448,484.589858676889,79.28422201031911,36.88036018891064,
AF4,39.90697427668934,22.563291803882585,369.854853591019,96.47075026406503,42.70229024033517,
AF3,224.99404391455107,22.057523375194776,216.2317409254339,63.35228933766236,50.92756609862771,
T7,340.98204687321527,38.78694285886233,227.30998172185352,30.728439809197713,77.58894592525623,
Pz,13.060001950317014,2.8027927394610543,58.76875382575174,3.444951321975601,13.44832631443991,
T8,94.61283464456002,17.097298028335448,484.589858676889,79.28422201031911,36.88036018891064,
AF4,39.90697427668934,22.563291803882585,369.854853591019,96.47075026406503,42.70229024033517,
AF3,224.99404391455107,22.057523375194776,216.2317409254339,63.35228933766236,50.92756609862771,
T7,340.98204687321527,38.78694285886233,227.30998172185352,30.728439809197713,77.58894592525623,
Pz,13.060001950317014,2.8027927394610543,58.76875382575174,3.444951321975601,13.44832631443991,
T8,94.61283464456002,17.097298028335448,484.589858676889,79.28422201031911,36.88036018891064,
AF4,39.90697427668934,22.563291803882585,369.854853591019,96.47075026406503,42.70229024033517,
AF3,224.99404391455107,22.057523375194776,216.2317409254339,63.35228933766236,50.92756609862771,
T7,340.98204687321527,38.78694285886233,227.30998172185352,30.728439809197713,77.58894592525623,
Pz,13.060001950317014,2.8027927394610543,58.76875382575174,3.444951321975601,13.44832631443991,
T8,94.61283464456002,17.097298028335448,484.589858676889,79.28422201031911,36.88036018891064,
AF4,39.90697427668934,22.563291803882585,369.854853591019,96.47075026406503,42.70229024033517,
AF3,82.48931953998249,21.96463968185113,155.55903586370482,52.47914134904808,42.57753113536112,
T7,82.16530724273247,21.50893382141189,187.61570031892518,32.80162714847757,41.94980416133495,
Pz,10.291194076217563,6.748389165836299,31.87972846475245,3.479933784560926,13.462467638704034,
T8,32.75591807313586,23.579272363951386,180.4816151724176,92.0611471393977,39.367062424247266,
AF4,29.78562782061444,26.10128765433959,121.57906885263027,77.41067032714102,56.450277702923124,
AF3,82.48931953998249,21.96463968185113,155.55903586370482,52.47914134904808,42.57753113536112,
T7,82.16530724273247,21.50893382141189,187.61570031892518,32.80162714847757,41.94980416133495,
Pz,10.291194076217563,6.748389165836299,31.87972846475245,3.479933784560926,13.462467638704034,
T8,32.75591807313586,23.579272363951386,180.4816151724176,92.0611471393977,39.367062424247266,
AF4,29.78562782061444,26.10128765433959,121.57906885263027,77.41067032714102,56.450277702923124,
AF3,82.48931953998249,21.96463968185113,155.55903586370482,52.47914134904808,42.57753113536112,
T7,82.16530724273247,21.50893382141189,187.61570031892518,32.80162714847757,41.94980416133495,
Pz,10.291194076217563,6.748389165836299,31.87972846475245,3.479933784560926,13.462467638704034,
T8,32.75591807313586,23.579272363951386,180.4816151724176,92.0611471393977,39.367062424247266,
AF4,29.78562782061444,26.10128765433959,121.57906885263027,77.41067032714102,56.450277702923124,
AF3,82.48931953998249,21.96463968185113,155.55903586370482,52.47914134904808,42.57753113536112,
T7,82.16530724273247,21.50893382141189,187.61570031892518,32.80162714847757,41.94980416133495,
Pz,10.291194076217563,6.748389165836299,31.87972846475245,3.479933784560926,13.462467638704034,
T8,32.75591807313586,23.579272363951386,180.4816151724176,92.0611471393977,39.367062424247266,
AF4,29.78562782061444,26.10128765433959,121.57906885263027,77.41067032714102,56.450277702923124,
AF3,82.48931953998249,21.96463968185113,155.55903586370482,52.47914134904808,42.57753113536112,
T7,82.16530724273247,21.50893382141189,187.61570031892518,32.80162714847757,41.94980416133495,
Pz,10.291194076217563,6.748389165836299,31.87972846475245,3.479933784560926,13.462467638704034,
T8,32.75591807313586,23.579272363951386,180.4816151724176,92.0611471393977,39.367062424247266,
AF4,29.78562782061444,26.10128765433959,121.57906885263027,77.41067032714102,56.450277702923124,
AF3,82.48931953998249,21.96463968185113,155.55903586370482,52.47914134904808,42.57753113536112,
T7,82.16530724273247,21.50893382141189,187.61570031892518,32.80162714847757,41.94980416133495,
Pz,10.291194076217563,6.748389165836299,31.87972846475245,3.479933784560926,13.462467638704034,
T8,32.75591807313586,23.579272363951386,180.4816151724176,92.0611471393977,39.367062424247266,
AF4,29.78562782061444,26.10128765433959,121.57906885263027,77.41067032714102,56.450277702923124,
AF3,82.48931953998249,21.96463968185113,155.55903586370482,52.47914134904808,42.57753113536112,
T7,82.16530724273247,21.50893382141189,187.61570031892518,32.80162714847757,41.94980416133495,
Pz,10.291194076217563,6.748389165836299,31.87972846475245,3.479933784560926,13.462467638704034,
T8,32.75591807313586,23.579272363951386,180.4816151724176,92.0611471393977,39.367062424247266,
AF4,29.78562782061444,26.10128765433959,121.57906885263027,77.41067032714102,56.450277702923124,
AF3,82.48931953998249,21.96463968185113,155.55903586370482,52.47914134904808,42.57753113536112,
T7,82.16530724273247,21.50893382141189,187.61570031892518,32.80162714847757,41.94980416133495,
Pz,10.291194076217563,6.748389165836299,31.87972846475245,3.479933784560926,13.462467638704034,
T8,32.75591807313586,23.579272363951386,180.4816151724176,92.0611471393977,39.367062424247266,
AF4,29.78562782061444,26.10128765433959,121.57906885263027,77.41067032714102,56.450277702923124,
AF3,82.48931953998249,21.96463968185113,155.55903586370482,52.47914134904808,42.57753113536112,
T7,82.16530724273247,21.50893382141189,187.61570031892518,32.80162714847757,41.94980416133495,
Pz,10.291194076217563,6.748389165836299,31.87972846475245,3.479933784560926,13.462467638704034,
T8,32.75591807313586,23.579272363951386,180.4816151724176,92.0611471393977,39.367062424247266,
AF4,29.78562782061444,26.10128765433959,121.57906885263027,77.41067032714102,56.450277702923124,
AF3,82.48931953998249,21.96463968185113,155.55903586370482,52.47914134904808,42.57753113536112,
T7,82.16530724273247,21.50893382141189,187.61570031892518,32.80162714847757,41.94980416133495,
Pz,10.291194076217563,6.748389165836299,31.87972846475245,3.479933784560926,13.462467638704034,
T8,32.75591807313586,23.579272363951386,180.4816151724176,92.0611471393977,39.367062424247266,
AF4,29.78562782061444,26.10128765433959,121.57906885263027,77.41067032714102,56.450277702923124,
AF3,82.48931953998249,21.96463968185113,155.55903586370482,52.47914134904808,42.57753113536112,
T7,82.16530724273247,21.50893382141189,187.61570031892518,32.80162714847757,41.94980416133495,
Pz,10.291194076217563,6.748389165836299,31.87972846475245,3.479933784560926,13.462467638704034,
T8,32.75591807313586,23.579272363951386,180.4816151724176,92.0611471393977,39.367062424247266,
AF4,29.78562782061444,26.10128765433959,121.57906885263027,77.41067032714102,56.450277702923124,
AF3,82.48931953998249,21.96463968185113,155.55903586370482,52.47914134904808,42.57753113536112,
T7,82.16530724273247,21.50893382141189,187.61570031892518,32.80162714847757,41.94980416133495,
Pz,10.291194076217563,6.748389165836299,31.87972846475245,3.479933784560926,13.462467638704034,
T8,32.75591807313586,23.579272363951386,180.4816151724176,92.0611471393977,39.367062424247266,
AF4,29.78562782061444,26.10128765433959,121.57906885263027,77.41067032714102,56.450277702923124,
AF3,82.48931953998249,21.96463968185113,155.55903586370482,52.47914134904808,42.57753113536112,
T7,82.16530724273247,21.50893382141189,187.61570031892518,32.80162714847757,41.94980416133495,
Pz,10.291194076217563,6.748389165836299,31.87972846475245,3.479933784560926,13.462467638704034,
T8,32.75591807313586,23.579272363951386,180.4816151724176,92.0611471393977,39.367062424247266,
AF4,29.78562782061444,26.10128765433959,121.57906885263027,77.41067032714102,56.450277702923124,
AF3,82.48931953998249,21.96463968185113,155.55903586370482,52.47914134904808,42.57753113536112,
T7,82.16530724273247,21.50893382141189,187.61570031892518,32.80162714847757,41.94980416133495,
Pz,10.291194076217563,6.748389165836299,31.87972846475245,3.479933784560926,13.462467638704034,
T8,32.75591807313586,23.579272363951386,180.4816151724176,92.0611471393977,39.367062424247266,
AF4,29.78562782061444,26.10128765433959,121.57906885263027,77.41067032714102,56.450277702923124,
AF3,82.48931953998249,21.96463968185113,155.55903586370482,52.47914134904808,42.57753113536112,
T7,82.16530724273247,21.50893382141189,187.61570031892518,32.80162714847757,41.94980416133495,
Pz,10.291194076217563,6.748389165836299,31.87972846475245,3.479933784560926,13.462467638704034,
T8,32.75591807313586,23.579272363951386,180.4816151724176,92.0611471393977,39.367062424247266,
AF4,29.78562782061444,26.10128765433959,121.57906885263027,77.41067032714102,56.450277702923124,
AF3,82.48931953998249,21.96463968185113,155.55903586370482,52.47914134904808,42.57753113536112,
T7,82.16530724273247,21.50893382141189,187.61570031892518,32.80162714847757,41.94980416133495,
Pz,10.291194076217563,6.748389165836299,31.87972846475245,3.479933784560926,13.462467638704034,
T8,32.75591807313586,23.579272363951386,180.4816151724176,92.0611471393977,39.367062424247266,
AF4,29.78562782061444,26.10128765433959,121.57906885263027,77.41067032714102,56.450277702923124,
AF3,82.48931953998249,21.96463968185113,155.55903586370482,52.47914134904808,42.57753113536112,
T7,82.16530724273247,21.50893382141189,187.61570031892518,32.80162714847757,41.94980416133495,
Pz,10.291194076217563,6.748389165836299,31.87972846475245,3.479933784560926,13.462467638704034,
T8,32.75591807313586,23.579272363951386,180.4816151724176,92.0611471393977,39.367062424247266,
AF4,29.78562782061444,26.10128765433959,121.57906885263027,77.41067032714102,56.450277702923124,
AF3,82.48931953998249,21.96463968185113,155.55903586370482,52.47914134904808,42.57753113536112,
T7,82.16530724273247,21.50893382141189,187.61570031892518,32.80162714847757,41.94980416133495,
Pz,10.291194076217563,6.748389165836299,31.87972846475245,3.479933784560926,13.462467638704034,
T8,32.75591807313586,23.579272363951386,180.4816151724176,92.0611471393977,39.367062424247266,
AF4,29.78562782061444,26.10128765433959,121.57906885263027,77.41067032714102,56.450277702923124,
AF3,82.48931953998249,21.96463968185113,155.55903586370482,52.47914134904808,42.57753113536112,
T7,82.16530724273247,21.50893382141189,187.61570031892518,32.80162714847757,41.94980416133495,
Pz,10.291194076217563,6.748389165836299,31.87972846475245,3.479933784560926,13.462467638704034,
T8,32.75591807313586,23.579272363951386,180.4816151724176,92.0611471393977,39.367062424247266,
AF4,29.78562782061444,26.10128765433959,121.57906885263027,77.41067032714102,56.450277702923124,
AF3,82.48931953998249,21.96463968185113,155.55903586370482,52.47914134904808,42.57753113536112,
T7,82.16530724273247,21.50893382141189,187.61570031892518,32.80162714847757,41.94980416133495,
Pz,10.291194076217563,6.748389165836299,31.87972846475245,3.479933784560926,13.462467638704034,
T8,32.75591807313586,23.579272363951386,180.4816151724176,92.0611471393977,39.367062424247266,
AF4,29.78562782061444,26.10128765433959,121.57906885263027,77.41067032714102,56.450277702923124,
AF3,82.48931953998249,21.96463968185113,155.55903586370482,52.47914134904808,42.57753113536112,
T7,82.16530724273247,21.50893382141189,187.61570031892518,32.80162714847757,41.94980416133495,
Pz,10.291194076217563,6.748389165836299,31.87972846475245,3.479933784560926,13.462467638704034,
T8,32.75591807313586,23.579272363951386,180.4816151724176,92.0611471393977,39.367062424247266,
AF4,29.78562782061444,26.10128765433959,121.57906885263027,77.41067032714102,56.450277702923124,
AF3,82.48931953998249,21.96463968185113,155.55903586370482,52.47914134904808,42.57753113536112,
T7,82.16530724273247,21.50893382141189,187.61570031892518,32.80162714847757,41.94980416133495,
Pz,10.291194076217563,6.748389165836299,31.87972846475245,3.479933784560926,13.462467638704034,
T8,32.75591807313586,23.579272363951386,180.4816151724176,92.0611471393977,39.367062424247266,
AF4,29.78562782061444,26.10128765433959,121.57906885263027,77.41067032714102,56.450277702923124,
AF3,82.48931953998249,21.96463968185113,155.55903586370482,52.47914134904808,42.57753113536112,
T7,82.16530724273247,21.50893382141189,187.61570031892518,32.80162714847757,41.94980416133495,
Pz,10.291194076217563,6.748389165836299,31.87972846475245,3.479933784560926,13.462467638704034,
T8,32.75591807313586,23.579272363951386,180.4816151724176,92.0611471393977,39.367062424247266,
AF4,29.78562782061444,26.10128765433959,121.57906885263027,77.41067032714102,56.450277702923124,
AF3,82.48931953998249,21.96463968185113,155.55903586370482,52.47914134904808,42.57753113536112,
T7,82.16530724273247,21.50893382141189,187.61570031892518,32.80162714847757,41.94980416133495,
Pz,10.291194076217563,6.748389165836299,31.87972846475245,3.479933784560926,13.462467638704034,
T8,32.75591807313586,23.579272363951386,180.4816151724176,92.0611471393977,39.367062424247266,
AF4,29.78562782061444,26.10128765433959,121.57906885263027,77.41067032714102,56.450277702923124,
AF3,82.48931953998249,21.96463968185113,155.55903586370482,52.47914134904808,42.57753113536112,
T7,82.16530724273247,21.50893382141189,187.61570031892518,32.80162714847757,41.94980416133495,
Pz,10.291194076217563,6.748389165836299,31.87972846475245,3.479933784560926,13.462467638704034,
T8,32.75591807313586,23.579272363951386,180.4816151724176,92.0611471393977,39.367062424247266,
AF4,29.78562782061444,26.10128765433959,121.57906885263027,77.41067032714102,56.450277702923124,
AF3,82.48931953998249,21.96463968185113,155.55903586370482,52.47914134904808,42.57753113536112,
T7,82.16530724273247,21.50893382141189,187.61570031892518,32.80162714847757,41.94980416133495,
Pz,10.291194076217563,6.748389165836299,31.87972846475245,3.479933784560926,13.462467638704034,
T8,32.75591807313586,23.579272363951386,180.4816151724176,92.0611471393977,39.367062424247266,
AF4,29.78562782061444,26.10128765433959,121.57906885263027,77.41067032714102,56.450277702923124,
AF3,82.48931953998249,21.96463968185113,155.55903586370482,52.47914134904808,42.57753113536112,
T7,82.16530724273247,21.50893382141189,187.61570031892518,32.80162714847757,41.94980416133495,
Pz,10.291194076217563,6.748389165836299,31.87972846475245,3.479933784560926,13.462467638704034,
T8,32.75591807313586,23.579272363951386,180.4816151724176,92.0611471393977,39.367062424247266,
AF4,29.78562782061444,26.10128765433959,121.57906885263027,77.41067032714102,56.450277702923124,
AF3,82.48931953998249,21.96463968185113,155.55903586370482,52.47914134904808,42.57753113536112,
T7,82.16530724273247,21.50893382141189,187.61570031892518,32.80162714847757,41.94980416133495,
Pz,10.291194076217563,6.748389165836299,31.87972846475245,3.479933784560926,13.462467638704034,
T8,32.75591807313586,23.579272363951386,180.4816151724176,92.0611471393977,39.367062424247266,
AF4,29.78562782061444,26.10128765433959,121.57906885263027,77.41067032714102,56.450277702923124,
AF3,82.48931953998249,21.96463968185113,155.55903586370482,52.47914134904808,42.57753113536112,
T7,82.16530724273247,21.50893382141189,187.61570031892518,32.80162714847757,41.94980416133495,
Pz,10.291194076217563,6.748389165836299,31.87972846475245,3.479933784560926,13.462467638704034,
T8,32.75591807313586,23.579272363951386,180.4816151724176,92.0611471393977,39.367062424247266,
AF4,29.78562782061444,26.10128765433959,121.57906885263027,77.41067032714102,56.450277702923124,
AF3,82.48931953998249,21.96463968185113,155.55903586370482,52.47914134904808,42.57753113536112,
T7,82.16530724273247,21.50893382141189,187.61570031892518,32.80162714847757,41.94980416133495,
Pz,10.291194076217563,6.748389165836299,31.87972846475245,3.479933784560926,13.462467638704034,
T8,32.75591807313586,23.579272363951386,180.4816151724176,92.0611471393977,39.367062424247266,
AF4,29.78562782061444,26.10128765433959,121.57906885263027,77.41067032714102,56.450277702923124,
AF3,82.48931953998249,21.96463968185113,155.55903586370482,52.47914134904808,42.57753113536112,
T7,82.16530724273247,21.50893382141189,187.61570031892518,32.80162714847757,41.94980416133495,
Pz,10.291194076217563,6.748389165836299,31.87972846475245,3.479933784560926,13.462467638704034,
T8,32.75591807313586,23.579272363951386,180.4816151724176,92.0611471393977,39.367062424247266,
AF4,29.78562782061444,26.10128765433959,121.57906885263027,77.41067032714102,56.450277702923124,
AF3,82.48931953998249,21.96463968185113,155.55903586370482,52.47914134904808,42.57753113536112,
T7,82.16530724273247,21.50893382141189,187.61570031892518,32.80162714847757,41.94980416133495,
Pz,10.291194076217563,6.748389165836299,31.87972846475245,3.479933784560926,13.462467638704034,
T8,32.75591807313586,23.579272363951386,180.4816151724176,92.0611471393977,39.367062424247266,
AF4,29.78562782061444,26.10128765433959,121.57906885263027,77.41067032714102,56.450277702923124,
AF3,82.48931953998249,21.96463968185113,155.55903586370482,52.47914134904808,42.57753113536112,
T7,82.16530724273247,21.50893382141189,187.61570031892518,32.80162714847757,41.94980416133495,
Pz,10.291194076217563,6.748389165836299,31.87972846475245,3.479933784560926,13.462467638704034,
T8,32.75591807313586,23.579272363951386,180.4816151724176,92.0611471393977,39.367062424247266,
AF4,29.78562782061444,26.10128765433959,121.57906885263027,77.41067032714102,56.450277702923124,
AF3,82.48931953998249,21.96463968185113,155.55903586370482,52.47914134904808,42.57753113536112,
T7,82.16530724273247,21.50893382141189,187.61570031892518,32.80162714847757,41.94980416133495,
Pz,10.291194076217563,6.748389165836299,31.87972846475245,3.479933784560926,13.462467638704034,
T8,32.75591807313586,23.579272363951386,180.4816151724176,92.0611471393977,39.367062424247266,
AF4,29.78562782061444,26.10128765433959,121.57906885263027,77.41067032714102,56.450277702923124,
AF3,82.48931953998249,21.96463968185113,155.55903586370482,52.47914134904808,42.57753113536112,
T7,82.16530724273247,21.50893382141189,187.61570031892518,32.80162714847757,41.94980416133495,
Pz,10.291194076217563,6.748389165836299,31.87972846475245,3.479933784560926,13.462467638704034,
T8,32.75591807313586,23.579272363951386,180.4816151724176,92.0611471393977,39.367062424247266,
AF4,29.78562782061444,26.10128765433959,121.57906885263027,77.41067032714102,56.450277702923124,
AF3,82.48931953998249,21.96463968185113,155.55903586370482,52.47914134904808,42.57753113536112,
T7,82.16530724273247,21.50893382141189,187.61570031892518,32.80162714847757,41.94980416133495,
Pz,10.291194076217563,6.748389165836299,31.87972846475245,3.479933784560926,13.462467638704034,
T8,32.75591807313586,23.579272363951386,180.4816151724176,92.0611471393977,39.367062424247266,
AF4,29.78562782061444,26.10128765433959,121.57906885263027,77.41067032714102,56.450277702923124,
AF3,82.48931953998249,21.96463968185113,155.55903586370482,52.47914134904808,42.57753113536112,
T7,82.16530724273247,21.50893382141189,187.61570031892518,32.80162714847757,41.94980416133495,
Pz,10.291194076217563,6.748389165836299,31.87972846475245,3.479933784560926,13.462467638704034,
T8,32.75591807313586,23.579272363951386,180.4816151724176,92.0611471393977,39.367062424247266,
AF4,29.78562782061444,26.10128765433959,121.57906885263027,77.41067032714102,56.450277702923124,
AF3,82.48931953998249,21.96463968185113,155.55903586370482,52.47914134904808,42.57753113536112,
T7,82.16530724273247,21.50893382141189,187.61570031892518,32.80162714847757,41.94980416133495,
Pz,10.291194076217563,6.748389165836299,31.87972846475245,3.479933784560926,13.462467638704034,
T8,32.75591807313586,23.579272363951386,180.4816151724176,92.0611471393977,39.367062424247266,
AF4,29.78562782061444,26.10128765433959,121.57906885263027,77.41067032714102,56.450277702923124,
AF3,82.48931953998249,21.96463968185113,155.55903586370482,52.47914134904808,42.57753113536112,
T7,82.16530724273247,21.50893382141189,187.61570031892518,32.80162714847757,41.94980416133495,
Pz,10.291194076217563,6.748389165836299,31.87972846475245,3.479933784560926,13.462467638704034,
T8,32.75591807313586,23.579272363951386,180.4816151724176,92.0611471393977,39.367062424247266,
AF4,29.78562782061444,26.10128765433959,121.57906885263027,77.41067032714102,56.450277702923124,
AF3,82.48931953998249,21.96463968185113,155.55903586370482,52.47914134904808,42.57753113536112,
T7,82.16530724273247,21.50893382141189,187.61570031892518,32.80162714847757,41.94980416133495,
Pz,10.291194076217563,6.748389165836299,31.87972846475245,3.479933784560926,13.462467638704034,
T8,32.75591807313586,23.579272363951386,180.4816151724176,92.0611471393977,39.367062424247266,
AF4,29.78562782061444,26.10128765433959,121.57906885263027,77.41067032714102,56.450277702923124,
AF3,82.48931953998249,21.96463968185113,155.55903586370482,52.47914134904808,42.57753113536112,
T7,82.16530724273247,21.50893382141189,187.61570031892518,32.80162714847757,41.94980416133495,
Pz,10.291194076217563,6.748389165836299,31.87972846475245,3.479933784560926,13.462467638704034,
T8,32.75591807313586,23.579272363951386,180.4816151724176,92.0611471393977,39.367062424247266,
AF4,29.78562782061444,26.10128765433959,121.57906885263027,77.41067032714102,56.450277702923124,
AF3,82.48931953998249,21.96463968185113,155.55903586370482,52.47914134904808,42.57753113536112,
T7,82.16530724273247,21.50893382141189,187.61570031892518,32.80162714847757,41.94980416133495,
Pz,10.291194076217563,6.748389165836299,31.87972846475245,3.479933784560926,13.462467638704034,
T8,32.75591807313586,23.579272363951386,180.4816151724176,92.0611471393977,39.367062424247266,
AF4,29.78562782061444,26.10128765433959,121.57906885263027,77.41067032714102,56.450277702923124,
AF3,82.48931953998249,21.96463968185113,155.55903586370482,52.47914134904808,42.57753113536112,
T7,82.16530724273247,21.50893382141189,187.61570031892518,32.80162714847757,41.94980416133495,
Pz,10.291194076217563,6.748389165836299,31.87972846475245,3.479933784560926,13.462467638704034,
T8,32.75591807313586,23.579272363951386,180.4816151724176,92.0611471393977,39.367062424247266,
AF4,29.78562782061444,26.10128765433959,121.57906885263027,77.41067032714102,56.450277702923124,
AF3,82.48931953998249,21.96463968185113,155.55903586370482,52.47914134904808,42.57753113536112,
T7,82.16530724273247,21.50893382141189,187.61570031892518,32.80162714847757,41.94980416133495,
Pz,10.291194076217563,6.748389165836299,31.87972846475245,3.479933784560926,13.462467638704034,
T8,32.75591807313586,23.579272363951386,180.4816151724176,92.0611471393977,39.367062424247266,
AF4,29.78562782061444,26.10128765433959,121.57906885263027,77.41067032714102,56.450277702923124,
AF3,82.48931953998249,21.96463968185113,155.55903586370482,52.47914134904808,42.57753113536112,
T7,82.16530724273247,21.50893382141189,187.61570031892518,32.80162714847757,41.94980416133495,
Pz,10.291194076217563,6.748389165836299,31.87972846475245,3.479933784560926,13.462467638704034,
T8,32.75591807313586,23.579272363951386,180.4816151724176,92.0611471393977,39.367062424247266,
AF4,29.78562782061444,26.10128765433959,121.57906885263027,77.41067032714102,56.450277702923124,
AF3,82.48931953998249,21.96463968185113,155.55903586370482,52.47914134904808,42.57753113536112,
T7,82.16530724273247,21.50893382141189,187.61570031892518,32.80162714847757,41.94980416133495,
Pz,10.291194076217563,6.748389165836299,31.87972846475245,3.479933784560926,13.462467638704034,
T8,32.75591807313586,23.579272363951386,180.4816151724176,92.0611471393977,39.367062424247266,
AF4,29.78562782061444,26.10128765433959,121.57906885263027,77.41067032714102,56.450277702923124,
AF3,82.48931953998249,21.96463968185113,155.55903586370482,52.47914134904808,42.57753113536112,
T7,82.16530724273247,21.50893382141189,187.61570031892518,32.80162714847757,41.94980416133495,
Pz,10.291194076217563,6.748389165836299,31.87972846475245,3.479933784560926,13.462467638704034,
T8,32.75591807313586,23.579272363951386,180.4816151724176,92.0611471393977,39.367062424247266,
AF4,29.78562782061444,26.10128765433959,121.57906885263027,77.41067032714102,56.450277702923124,
AF3,82.48931953998249,21.96463968185113,155.55903586370482,52.47914134904808,42.57753113536112,
T7,82.16530724273247,21.50893382141189,187.61570031892518,32.80162714847757,41.94980416133495,
Pz,10.291194076217563,6.748389165836299,31.87972846475245,3.479933784560926,13.462467638704034,
T8,32.75591807313586,23.579272363951386,180.4816151724176,92.0611471393977,39.367062424247266,
AF4,29.78562782061444,26.10128765433959,121.57906885263027,77.41067032714102,56.450277702923124,
AF3,82.48931953998249,21.96463968185113,155.55903586370482,52.47914134904808,42.57753113536112,
T7,82.16530724273247,21.50893382141189,187.61570031892518,32.80162714847757,41.94980416133495,
Pz,10.291194076217563,6.748389165836299,31.87972846475245,3.479933784560926,13.462467638704034,
T8,32.75591807313586,23.579272363951386,180.4816151724176,92.0611471393977,39.367062424247266,
AF4,29.78562782061444,26.10128765433959,121.57906885263027,77.41067032714102,56.450277702923124,
AF3,82.48931953998249,21.96463968185113,155.55903586370482,52.47914134904808,42.57753113536112,
T7,82.16530724273247,21.50893382141189,187.61570031892518,32.80162714847757,41.94980416133495,
Pz,10.291194076217563,6.748389165836299,31.87972846475245,3.479933784560926,13.462467638704034,
T8,32.75591807313586,23.579272363951386,180.4816151724176,92.0611471393977,39.367062424247266,
AF4,29.78562782061444,26.10128765433959,121.57906885263027,77.41067032714102,56.450277702923124,
AF3,82.48931953998249,21.96463968185113,155.55903586370482,52.47914134904808,42.57753113536112,
T7,82.16530724273247,21.50893382141189,187.61570031892518,32.80162714847757,41.94980416133495,
Pz,10.291194076217563,6.748389165836299,31.87972846475245,3.479933784560926,13.462467638704034,
T8,32.75591807313586,23.579272363951386,180.4816151724176,92.0611471393977,39.367062424247266,
AF4,29.78562782061444,26.10128765433959,121.57906885263027,77.41067032714102,56.450277702923124,
AF3,82.48931953998249,21.96463968185113,155.55903586370482,52.47914134904808,42.57753113536112,
T7,82.16530724273247,21.50893382141189,187.61570031892518,32.80162714847757,41.94980416133495,
Pz,10.291194076217563,6.748389165836299,31.87972846475245,3.479933784560926,13.462467638704034,
T8,32.75591807313586,23.579272363951386,180.4816151724176,92.0611471393977,39.367062424247266,
AF4,29.78562782061444,26.10128765433959,121.57906885263027,77.41067032714102,56.450277702923124,
AF3,82.48931953998249,21.96463968185113,155.55903586370482,52.47914134904808,42.57753113536112,
T7,82.16530724273247,21.50893382141189,187.61570031892518,32.80162714847757,41.94980416133495,
Pz,10.291194076217563,6.748389165836299,31.87972846475245,3.479933784560926,13.462467638704034,
T8,32.75591807313586,23.579272363951386,180.4816151724176,92.0611471393977,39.367062424247266,
AF4,29.78562782061444,26.10128765433959,121.57906885263027,77.41067032714102,56.450277702923124,
AF3,82.48931953998249,21.96463968185113,155.55903586370482,52.47914134904808,42.57753113536112,
T7,82.16530724273247,21.50893382141189,187.61570031892518,32.80162714847757,41.94980416133495,
Pz,10.291194076217563,6.748389165836299,31.87972846475245,3.479933784560926,13.462467638704034,
T8,32.75591807313586,23.579272363951386,180.4816151724176,92.0611471393977,39.367062424247266,
AF4,29.78562782061444,26.10128765433959,121.57906885263027,77.41067032714102,56.450277702923124,
AF3,82.48931953998249,21.96463968185113,155.55903586370482,52.47914134904808,42.57753113536112,
T7,82.16530724273247,21.50893382141189,187.61570031892518,32.80162714847757,41.94980416133495,
Pz,10.291194076217563,6.748389165836299,31.87972846475245,3.479933784560926,13.462467638704034,
T8,32.75591807313586,23.579272363951386,180.4816151724176,92.0611471393977,39.367062424247266,
AF4,29.78562782061444,26.10128765433959,121.57906885263027,77.41067032714102,56.450277702923124,
AF3,82.48931953998249,21.96463968185113,155.55903586370482,52.47914134904808,42.57753113536112,
T7,82.16530724273247,21.50893382141189,187.61570031892518,32.80162714847757,41.94980416133495,
Pz,10.291194076217563,6.748389165836299,31.87972846475245,3.479933784560926,13.462467638704034,
T8,32.75591807313586,23.579272363951386,180.4816151724176,92.0611471393977,39.367062424247266,
AF4,29.78562782061444,26.10128765433959,121.57906885263027,77.41067032714102,56.450277702923124,
AF3,82.48931953998249,21.96463968185113,155.55903586370482,52.47914134904808,42.57753113536112,
T7,82.16530724273247,21.50893382141189,187.61570031892518,32.80162714847757,41.94980416133495,
Pz,10.291194076217563,6.748389165836299,31.87972846475245,3.479933784560926,13.462467638704034,
T8,32.75591807313586,23.579272363951386,180.4816151724176,92.0611471393977,39.367062424247266,
AF4,29.78562782061444,26.10128765433959,121.57906885263027,77.41067032714102,56.450277702923124,
AF3,82.48931953998249,21.96463968185113,155.55903586370482,52.47914134904808,42.57753113536112,
T7,82.16530724273247,21.50893382141189,187.61570031892518,32.80162714847757,41.94980416133495,
Pz,10.291194076217563,6.748389165836299,31.87972846475245,3.479933784560926,13.462467638704034,
T8,32.75591807313586,23.579272363951386,180.4816151724176,92.0611471393977,39.367062424247266,
AF4,29.78562782061444,26.10128765433959,121.57906885263027,77.41067032714102,56.450277702923124,
AF3,82.48931953998249,21.96463968185113,155.55903586370482,52.47914134904808,42.57753113536112,
T7,82.16530724273247,21.50893382141189,187.61570031892518,32.80162714847757,41.94980416133495,
Pz,10.291194076217563,6.748389165836299,31.87972846475245,3.479933784560926,13.462467638704034,
T8,32.75591807313586,23.579272363951386,180.4816151724176,92.0611471393977,39.367062424247266,
AF4,29.78562782061444,26.10128765433959,121.57906885263027,77.41067032714102,56.450277702923124,
AF3,82.48931953998249,21.96463968185113,155.55903586370482,52.47914134904808,42.57753113536112,
T7,82.16530724273247,21.50893382141189,187.61570031892518,32.80162714847757,41.94980416133495,
Pz,10.291194076217563,6.748389165836299,31.87972846475245,3.479933784560926,13.462467638704034,
T8,32.75591807313586,23.579272363951386,180.4816151724176,92.0611471393977,39.367062424247266,
AF4,29.78562782061444,26.10128765433959,121.57906885263027,77.41067032714102,56.450277702923124,
AF3,82.48931953998249,21.96463968185113,155.55903586370482,52.47914134904808,42.57753113536112,
T7,82.16530724273247,21.50893382141189,187.61570031892518,32.80162714847757,41.94980416133495,
Pz,10.291194076217563,6.748389165836299,31.87972846475245,3.479933784560926,13.462467638704034,
T8,32.75591807313586,23.579272363951386,180.4816151724176,92.0611471393977,39.367062424247266,
AF4,29.78562782061444,26.10128765433959,121.57906885263027,77.41067032714102,56.450277702923124,
AF3,82.48931953998249,21.96463968185113,155.55903586370482,52.47914134904808,42.57753113536112,
T7,82.16530724273247,21.50893382141189,187.61570031892518,32.80162714847757,41.94980416133495,
Pz,10.291194076217563,6.748389165836299,31.87972846475245,3.479933784560926,13.462467638704034,
T8,32.75591807313586,23.579272363951386,180.4816151724176,92.0611471393977,39.367062424247266,
AF4,29.78562782061444,26.10128765433959,121.57906885263027,77.41067032714102,56.450277702923124,
AF3,82.48931953998249,21.96463968185113,155.55903586370482,52.47914134904808,42.57753113536112,
T7,82.16530724273247,21.50893382141189,187.61570031892518,32.80162714847757,41.94980416133495,
Pz,10.291194076217563,6.748389165836299,31.87972846475245,3.479933784560926,13.462467638704034,
T8,32.75591807313586,23.579272363951386,180.4816151724176,92.0611471393977,39.367062424247266,
AF4,29.78562782061444,26.10128765433959,121.57906885263027,77.41067032714102,56.450277702923124,
AF3,82.48931953998249,21.96463968185113,155.55903586370482,52.47914134904808,42.57753113536112,
T7,82.16530724273247,21.50893382141189,187.61570031892518,32.80162714847757,41.94980416133495,
Pz,10.291194076217563,6.748389165836299,31.87972846475245,3.479933784560926,13.462467638704034,
T8,32.75591807313586,23.579272363951386,180.4816151724176,92.0611471393977,39.367062424247266,
AF4,29.78562782061444,26.10128765433959,121.57906885263027,77.41067032714102,56.450277702923124,
AF3,82.48931953998249,21.96463968185113,155.55903586370482,52.47914134904808,42.57753113536112,
T7,82.16530724273247,21.50893382141189,187.61570031892518,32.80162714847757,41.94980416133495,
Pz,10.291194076217563,6.748389165836299,31.87972846475245,3.479933784560926,13.462467638704034,
T8,32.75591807313586,23.579272363951386,180.4816151724176,92.0611471393977,39.367062424247266,
AF4,29.78562782061444,26.10128765433959,121.57906885263027,77.41067032714102,56.450277702923124,
AF3,82.48931953998249,21.96463968185113,155.55903586370482,52.47914134904808,42.57753113536112,
T7,82.16530724273247,21.50893382141189,187.61570031892518,32.80162714847757,41.94980416133495,
Pz,10.291194076217563,6.748389165836299,31.87972846475245,3.479933784560926,13.462467638704034,
T8,32.75591807313586,23.579272363951386,180.4816151724176,92.0611471393977,39.367062424247266,
AF4,29.78562782061444,26.10128765433959,121.57906885263027,77.41067032714102,56.450277702923124,
AF3,82.48931953998249,21.96463968185113,155.55903586370482,52.47914134904808,42.57753113536112,
T7,82.16530724273247,21.50893382141189,187.61570031892518,32.80162714847757,41.94980416133495,
Pz,10.291194076217563,6.748389165836299,31.87972846475245,3.479933784560926,13.462467638704034,
T8,32.75591807313586,23.579272363951386,180.4816151724176,92.0611471393977,39.367062424247266,
AF4,29.78562782061444,26.10128765433959,121.57906885263027,77.41067032714102,56.450277702923124,
AF3,82.48931953998249,21.96463968185113,155.55903586370482,52.47914134904808,42.57753113536112,
T7,82.16530724273247,21.50893382141189,187.61570031892518,32.80162714847757,41.94980416133495,
Pz,10.291194076217563,6.748389165836299,31.87972846475245,3.479933784560926,13.462467638704034,
T8,32.75591807313586,23.579272363951386,180.4816151724176,92.0611471393977,39.367062424247266,
AF4,29.78562782061444,26.10128765433959,121.57906885263027,77.41067032714102,56.450277702923124,
AF3,82.48931953998249,21.96463968185113,155.55903586370482,52.47914134904808,42.57753113536112,
T7,82.16530724273247,21.50893382141189,187.61570031892518,32.80162714847757,41.94980416133495,
Pz,10.291194076217563,6.748389165836299,31.87972846475245,3.479933784560926,13.462467638704034,
T8,32.75591807313586,23.579272363951386,180.4816151724176,92.0611471393977,39.367062424247266,
AF4,29.78562782061444,26.10128765433959,121.57906885263027,77.41067032714102,56.450277702923124,
AF3,82.48931953998249,21.96463968185113,155.55903586370482,52.47914134904808,42.57753113536112,
T7,82.16530724273247,21.50893382141189,187.61570031892518,32.80162714847757,41.94980416133495,
Pz,10.291194076217563,6.748389165836299,31.87972846475245,3.479933784560926,13.462467638704034,
T8,32.75591807313586,23.579272363951386,180.4816151724176,92.0611471393977,39.367062424247266,
AF4,29.78562782061444,26.10128765433959,121.57906885263027,77.41067032714102,56.450277702923124,
AF3,82.48931953998249,21.96463968185113,155.55903586370482,52.47914134904808,42.57753113536112,
T7,82.16530724273247,21.50893382141189,187.61570031892518,32.80162714847757,41.94980416133495,
Pz,10.291194076217563,6.748389165836299,31.87972846475245,3.479933784560926,13.462467638704034,
T8,32.75591807313586,23.579272363951386,180.4816151724176,92.0611471393977,39.367062424247266,
AF4,29.78562782061444,26.10128765433959,121.57906885263027,77.41067032714102,56.450277702923124,
AF3,82.48931953998249,21.96463968185113,155.55903586370482,52.47914134904808,42.57753113536112,
T7,82.16530724273247,21.50893382141189,187.61570031892518,32.80162714847757,41.94980416133495,
Pz,10.291194076217563,6.748389165836299,31.87972846475245,3.479933784560926,13.462467638704034,
T8,32.75591807313586,23.579272363951386,180.4816151724176,92.0611471393977,39.367062424247266,
AF4,29.78562782061444,26.10128765433959,121.57906885263027,77.41067032714102,56.450277702923124,
AF3,82.48931953998249,21.96463968185113,155.55903586370482,52.47914134904808,42.57753113536112,
T7,82.16530724273247,21.50893382141189,187.61570031892518,32.80162714847757,41.94980416133495,
Pz,10.291194076217563,6.748389165836299,31.87972846475245,3.479933784560926,13.462467638704034,
T8,32.75591807313586,23.579272363951386,180.4816151724176,92.0611471393977,39.367062424247266,
AF4,29.78562782061444,26.10128765433959,121.57906885263027,77.41067032714102,56.450277702923124,
AF3,82.48931953998249,21.96463968185113,155.55903586370482,52.47914134904808,42.57753113536112,
T7,82.16530724273247,21.50893382141189,187.61570031892518,32.80162714847757,41.94980416133495,
Pz,10.291194076217563,6.748389165836299,31.87972846475245,3.479933784560926,13.462467638704034,
T8,32.75591807313586,23.579272363951386,180.4816151724176,92.0611471393977,39.367062424247266,
AF4,29.78562782061444,26.10128765433959,121.57906885263027,77.41067032714102,56.450277702923124,
AF3,82.48931953998249,21.96463968185113,155.55903586370482,52.47914134904808,42.57753113536112,
T7,82.16530724273247,21.50893382141189,187.61570031892518,32.80162714847757,41.94980416133495,
Pz,10.291194076217563,6.748389165836299,31.87972846475245,3.479933784560926,13.462467638704034,
T8,32.75591807313586,23.579272363951386,180.4816151724176,92.0611471393977,39.367062424247266,
AF4,29.78562782061444,26.10128765433959,121.57906885263027,77.41067032714102,56.450277702923124,
AF3,82.48931953998249,21.96463968185113,155.55903586370482,52.47914134904808,42.57753113536112,
T7,82.16530724273247,21.50893382141189,187.61570031892518,32.80162714847757,41.94980416133495,
Pz,10.291194076217563,6.748389165836299,31.87972846475245,3.479933784560926,13.462467638704034,
T8,32.75591807313586,23.579272363951386,180.4816151724176,92.0611471393977,39.367062424247266,
AF4,29.78562782061444,26.10128765433959,121.57906885263027,77.41067032714102,56.450277702923124,
AF3,82.48931953998249,21.96463968185113,155.55903586370482,52.47914134904808,42.57753113536112,
T7,82.16530724273247,21.50893382141189,187.61570031892518,32.80162714847757,41.94980416133495,
Pz,10.291194076217563,6.748389165836299,31.87972846475245,3.479933784560926,13.462467638704034,
T8,32.75591807313586,23.579272363951386,180.4816151724176,92.0611471393977,39.367062424247266,
AF4,29.78562782061444,26.10128765433959,121.57906885263027,77.41067032714102,56.450277702923124,
AF3,82.48931953998249,21.96463968185113,155.55903586370482,52.47914134904808,42.57753113536112,
T7,82.16530724273247,21.50893382141189,187.61570031892518,32.80162714847757,41.94980416133495,
Pz,10.291194076217563,6.748389165836299,31.87972846475245,3.479933784560926,13.462467638704034,
T8,32.75591807313586,23.579272363951386,180.4816151724176,92.0611471393977,39.367062424247266,
AF4,29.78562782061444,26.10128765433959,121.57906885263027,77.41067032714102,56.450277702923124,
AF3,82.48931953998249,21.96463968185113,155.55903586370482,52.47914134904808,42.57753113536112,
T7,82.16530724273247,21.50893382141189,187.61570031892518,32.80162714847757,41.94980416133495,
Pz,10.291194076217563,6.748389165836299,31.87972846475245,3.479933784560926,13.462467638704034,
T8,32.75591807313586,23.579272363951386,180.4816151724176,92.0611471393977,39.367062424247266,
AF4,29.78562782061444,26.10128765433959,121.57906885263027,77.41067032714102,56.450277702923124,
AF3,82.48931953998249,21.96463968185113,155.55903586370482,52.47914134904808,42.57753113536112,
T7,82.16530724273247,21.50893382141189,187.61570031892518,32.80162714847757,41.94980416133495,
Pz,10.291194076217563,6.748389165836299,31.87972846475245,3.479933784560926,13.462467638704034,
T8,32.75591807313586,23.579272363951386,180.4816151724176,92.0611471393977,39.367062424247266,
AF4,29.78562782061444,26.10128765433959,121.57906885263027,77.41067032714102,56.450277702923124,
AF3,82.48931953998249,21.96463968185113,155.55903586370482,52.47914134904808,42.57753113536112,
T7,82.16530724273247,21.50893382141189,187.61570031892518,32.80162714847757,41.94980416133495,
Pz,10.291194076217563,6.748389165836299,31.87972846475245,3.479933784560926,13.462467638704034,
T8,32.75591807313586,23.579272363951386,180.4816151724176,92.0611471393977,39.367062424247266,
AF4,29.78562782061444,26.10128765433959,121.57906885263027,77.41067032714102,56.450277702923124,
AF3,82.48931953998249,21.96463968185113,155.55903586370482,52.47914134904808,42.57753113536112,
T7,82.16530724273247,21.50893382141189,187.61570031892518,32.80162714847757,41.94980416133495,
Pz,10.291194076217563,6.748389165836299,31.87972846475245,3.479933784560926,13.462467638704034,
T8,32.75591807313586,23.579272363951386,180.4816151724176,92.0611471393977,39.367062424247266,
AF4,29.78562782061444,26.10128765433959,121.57906885263027,77.41067032714102,56.450277702923124,
AF3,82.48931953998249,21.96463968185113,155.55903586370482,52.47914134904808,42.57753113536112,
T7,82.16530724273247,21.50893382141189,187.61570031892518,32.80162714847757,41.94980416133495,
Pz,10.291194076217563,6.748389165836299,31.87972846475245,3.479933784560926,13.462467638704034,
T8,32.75591807313586,23.579272363951386,180.4816151724176,92.0611471393977,39.367062424247266,
AF4,29.78562782061444,26.10128765433959,121.57906885263027,77.41067032714102,56.450277702923124,
AF3,82.48931953998249,21.96463968185113,155.55903586370482,52.47914134904808,42.57753113536112,
T7,82.16530724273247,21.50893382141189,187.61570031892518,32.80162714847757,41.94980416133495,
Pz,10.291194076217563,6.748389165836299,31.87972846475245,3.479933784560926,13.462467638704034,
T8,32.75591807313586,23.579272363951386,180.4816151724176,92.0611471393977,39.367062424247266,
AF4,29.78562782061444,26.10128765433959,121.57906885263027,77.41067032714102,56.450277702923124,
AF3,82.48931953998249,21.96463968185113,155.55903586370482,52.47914134904808,42.57753113536112,
T7,82.16530724273247,21.50893382141189,187.61570031892518,32.80162714847757,41.94980416133495,
Pz,10.291194076217563,6.748389165836299,31.87972846475245,3.479933784560926,13.462467638704034,
T8,32.75591807313586,23.579272363951386,180.4816151724176,92.0611471393977,39.367062424247266,
AF4,29.78562782061444,26.10128765433959,121.57906885263027,77.41067032714102,56.450277702923124,
AF3,82.48931953998249,21.96463968185113,155.55903586370482,52.47914134904808,42.57753113536112,
T7,82.16530724273247,21.50893382141189,187.61570031892518,32.80162714847757,41.94980416133495,
Pz,10.291194076217563,6.748389165836299,31.87972846475245,3.479933784560926,13.462467638704034,
T8,32.75591807313586,23.579272363951386,180.4816151724176,92.0611471393977,39.367062424247266,
AF4,29.78562782061444,26.10128765433959,121.57906885263027,77.41067032714102,56.450277702923124,
AF3,82.48931953998249,21.96463968185113,155.55903586370482,52.47914134904808,42.57753113536112,
T7,82.16530724273247,21.50893382141189,187.61570031892518,32.80162714847757,41.94980416133495,
Pz,10.291194076217563,6.748389165836299,31.87972846475245,3.479933784560926,13.462467638704034,
T8,32.75591807313586,23.579272363951386,180.4816151724176,92.0611471393977,39.367062424247266,
AF4,29.78562782061444,26.10128765433959,121.57906885263027,77.41067032714102,56.450277702923124,
AF3,82.48931953998249,21.96463968185113,155.55903586370482,52.47914134904808,42.57753113536112,
T7,82.16530724273247,21.50893382141189,187.61570031892518,32.80162714847757,41.94980416133495,
Pz,10.291194076217563,6.748389165836299,31.87972846475245,3.479933784560926,13.462467638704034,
T8,32.75591807313586,23.579272363951386,180.4816151724176,92.0611471393977,39.367062424247266,
AF4,29.78562782061444,26.10128765433959,121.57906885263027,77.41067032714102,56.450277702923124,
AF3,82.48931953998249,21.96463968185113,155.55903586370482,52.47914134904808,42.57753113536112,
T7,82.16530724273247,21.50893382141189,187.61570031892518,32.80162714847757,41.94980416133495,
Pz,10.291194076217563,6.748389165836299,31.87972846475245,3.479933784560926,13.462467638704034,
T8,32.75591807313586,23.579272363951386,180.4816151724176,92.0611471393977,39.367062424247266,
AF4,29.78562782061444,26.10128765433959,121.57906885263027,77.41067032714102,56.450277702923124,
AF3,82.48931953998249,21.96463968185113,155.55903586370482,52.47914134904808,42.57753113536112,
T7,82.16530724273247,21.50893382141189,187.61570031892518,32.80162714847757,41.94980416133495,
Pz,10.291194076217563,6.748389165836299,31.87972846475245,3.479933784560926,13.462467638704034,
T8,32.75591807313586,23.579272363951386,180.4816151724176,92.0611471393977,39.367062424247266,
AF4,29.78562782061444,26.10128765433959,121.57906885263027,77.41067032714102,56.450277702923124,
AF3,82.48931953998249,21.96463968185113,155.55903586370482,52.47914134904808,42.57753113536112,
T7,82.16530724273247,21.50893382141189,187.61570031892518,32.80162714847757,41.94980416133495,
Pz,10.291194076217563,6.748389165836299,31.87972846475245,3.479933784560926,13.462467638704034,
T8,32.75591807313586,23.579272363951386,180.4816151724176,92.0611471393977,39.367062424247266,
AF4,29.78562782061444,26.10128765433959,121.57906885263027,77.41067032714102,56.450277702923124,
AF3,82.48931953998249,21.96463968185113,155.55903586370482,52.47914134904808,42.57753113536112,
T7,82.16530724273247,21.50893382141189,187.61570031892518,32.80162714847757,41.94980416133495,
Pz,10.291194076217563,6.748389165836299,31.87972846475245,3.479933784560926,13.462467638704034,
T8,32.75591807313586,23.579272363951386,180.4816151724176,92.0611471393977,39.367062424247266,
AF4,29.78562782061444,26.10128765433959,121.57906885263027,77.41067032714102,56.450277702923124,
AF3,82.48931953998249,21.96463968185113,155.55903586370482,52.47914134904808,42.57753113536112,
T7,82.16530724273247,21.50893382141189,187.61570031892518,32.80162714847757,41.94980416133495,
Pz,10.291194076217563,6.748389165836299,31.87972846475245,3.479933784560926,13.462467638704034,
T8,32.75591807313586,23.579272363951386,180.4816151724176,92.0611471393977,39.367062424247266,
AF4,29.78562782061444,26.10128765433959,121.57906885263027,77.41067032714102,56.450277702923124,
AF3,82.48931953998249,21.96463968185113,155.55903586370482,52.47914134904808,42.57753113536112,
T7,82.16530724273247,21.50893382141189,187.61570031892518,32.80162714847757,41.94980416133495,
Pz,10.291194076217563,6.748389165836299,31.87972846475245,3.479933784560926,13.462467638704034,
T8,32.75591807313586,23.579272363951386,180.4816151724176,92.0611471393977,39.367062424247266,
AF4,29.78562782061444,26.10128765433959,121.57906885263027,77.41067032714102,56.450277702923124,
AF3,82.48931953998249,21.96463968185113,155.55903586370482,52.47914134904808,42.57753113536112,
T7,82.16530724273247,21.50893382141189,187.61570031892518,32.80162714847757,41.94980416133495,
Pz,10.291194076217563,6.748389165836299,31.87972846475245,3.479933784560926,13.462467638704034,
T8,32.75591807313586,23.579272363951386,180.4816151724176,92.0611471393977,39.367062424247266,
AF4,29.78562782061444,26.10128765433959,121.57906885263027,77.41067032714102,56.450277702923124,
AF3,82.48931953998249,21.96463968185113,155.55903586370482,52.47914134904808,42.57753113536112,
T7,82.16530724273247,21.50893382141189,187.61570031892518,32.80162714847757,41.94980416133495,
Pz,10.291194076217563,6.748389165836299,31.87972846475245,3.479933784560926,13.462467638704034,
T8,32.75591807313586,23.579272363951386,180.4816151724176,92.0611471393977,39.367062424247266,
AF4,29.78562782061444,26.10128765433959,121.57906885263027,77.41067032714102,56.450277702923124,
AF3,146.37847601104593,42.96146212349212,125.71453426675596,55.623791649413256,37.68747793320611,
T7,224.8525665453134,19.494631762321617,70.2276637997391,24.704689385656707,53.4220329835808,
Pz,14.162901222917409,5.181930778425868,23.311784021379452,2.973525156349677,10.719865666439123,
T8,58.21979063810626,33.59376112079891,336.442946829581,92.64857979866568,54.85996846566377,
AF4,66.70915072361935,35.54278633672667,178.73008328213848,107.10854615060985,36.585092635010284,
AF3,146.37847601104593,42.96146212349212,125.71453426675596,55.623791649413256,37.68747793320611,
T7,224.8525665453134,19.494631762321617,70.2276637997391,24.704689385656707,53.4220329835808,
Pz,14.162901222917409,5.181930778425868,23.311784021379452,2.973525156349677,10.719865666439123,
T8,58.21979063810626,33.59376112079891,336.442946829581,92.64857979866568,54.85996846566377,
AF4,66.70915072361935,35.54278633672667,178.73008328213848,107.10854615060985,36.585092635010284,
AF3,146.37847601104593,42.96146212349212,125.71453426675596,55.623791649413256,37.68747793320611,
T7,224.8525665453134,19.494631762321617,70.2276637997391,24.704689385656707,53.4220329835808,
Pz,14.162901222917409,5.181930778425868,23.311784021379452,2.973525156349677,10.719865666439123,
T8,58.21979063810626,33.59376112079891,336.442946829581,92.64857979866568,54.85996846566377,
AF4,66.70915072361935,35.54278633672667,178.73008328213848,107.10854615060985,36.585092635010284,
AF3,146.37847601104593,42.96146212349212,125.71453426675596,55.623791649413256,37.68747793320611,
T7,224.8525665453134,19.494631762321617,70.2276637997391,24.704689385656707,53.4220329835808,
Pz,14.162901222917409,5.181930778425868,23.311784021379452,2.973525156349677,10.719865666439123,
T8,58.21979063810626,33.59376112079891,336.442946829581,92.64857979866568,54.85996846566377,
AF4,66.70915072361935,35.54278633672667,178.73008328213848,107.10854615060985,36.585092635010284,
AF3,146.37847601104593,42.96146212349212,125.71453426675596,55.623791649413256,37.68747793320611,
T7,224.8525665453134,19.494631762321617,70.2276637997391,24.704689385656707,53.4220329835808,
Pz,14.162901222917409,5.181930778425868,23.311784021379452,2.973525156349677,10.719865666439123,
T8,58.21979063810626,33.59376112079891,336.442946829581,92.64857979866568,54.85996846566377,
AF4,66.70915072361935,35.54278633672667,178.73008328213848,107.10854615060985,36.585092635010284,
AF3,146.37847601104593,42.96146212349212,125.71453426675596,55.623791649413256,37.68747793320611,
T7,224.8525665453134,19.494631762321617,70.2276637997391,24.704689385656707,53.4220329835808,
Pz,14.162901222917409,5.181930778425868,23.311784021379452,2.973525156349677,10.719865666439123,
T8,58.21979063810626,33.59376112079891,336.442946829581,92.64857979866568,54.85996846566377,
AF4,66.70915072361935,35.54278633672667,178.73008328213848,107.10854615060985,36.585092635010284,
AF3,146.37847601104593,42.96146212349212,125.71453426675596,55.623791649413256,37.68747793320611,
T7,224.8525665453134,19.494631762321617,70.2276637997391,24.704689385656707,53.4220329835808,
Pz,14.162901222917409,5.181930778425868,23.311784021379452,2.973525156349677,10.719865666439123,
T8,58.21979063810626,33.59376112079891,336.442946829581,92.64857979866568,54.85996846566377,
AF4,66.70915072361935,35.54278633672667,178.73008328213848,107.10854615060985,36.585092635010284,
AF3,146.37847601104593,42.96146212349212,125.71453426675596,55.623791649413256,37.68747793320611,
T7,224.8525665453134,19.494631762321617,70.2276637997391,24.704689385656707,53.4220329835808,
Pz,14.162901222917409,5.181930778425868,23.311784021379452,2.973525156349677,10.719865666439123,
T8,58.21979063810626,33.59376112079891,336.442946829581,92.64857979866568,54.85996846566377,
AF4,66.70915072361935,35.54278633672667,178.73008328213848,107.10854615060985,36.585092635010284,
AF3,146.37847601104593,42.96146212349212,125.71453426675596,55.623791649413256,37.68747793320611,
T7,224.8525665453134,19.494631762321617,70.2276637997391,24.704689385656707,53.4220329835808,
Pz,14.162901222917409,5.181930778425868,23.311784021379452,2.973525156349677,10.719865666439123,
T8,58.21979063810626,33.59376112079891,336.442946829581,92.64857979866568,54.85996846566377,
AF4,66.70915072361935,35.54278633672667,178.73008328213848,107.10854615060985,36.585092635010284,
AF3,146.37847601104593,42.96146212349212,125.71453426675596,55.623791649413256,37.68747793320611,
T7,224.8525665453134,19.494631762321617,70.2276637997391,24.704689385656707,53.4220329835808,
Pz,14.162901222917409,5.181930778425868,23.311784021379452,2.973525156349677,10.719865666439123,
T8,58.21979063810626,33.59376112079891,336.442946829581,92.64857979866568,54.85996846566377,
AF4,66.70915072361935,35.54278633672667,178.73008328213848,107.10854615060985,36.585092635010284,
AF3,146.37847601104593,42.96146212349212,125.71453426675596,55.623791649413256,37.68747793320611,
T7,224.8525665453134,19.494631762321617,70.2276637997391,24.704689385656707,53.4220329835808,
Pz,14.162901222917409,5.181930778425868,23.311784021379452,2.973525156349677,10.719865666439123,
T8,58.21979063810626,33.59376112079891,336.442946829581,92.64857979866568,54.85996846566377,
AF4,66.70915072361935,35.54278633672667,178.73008328213848,107.10854615060985,36.585092635010284,
AF3,146.37847601104593,42.96146212349212,125.71453426675596,55.623791649413256,37.68747793320611,
T7,224.8525665453134,19.494631762321617,70.2276637997391,24.704689385656707,53.4220329835808,
Pz,14.162901222917409,5.181930778425868,23.311784021379452,2.973525156349677,10.719865666439123,
T8,58.21979063810626,33.59376112079891,336.442946829581,92.64857979866568,54.85996846566377,
AF4,66.70915072361935,35.54278633672667,178.73008328213848,107.10854615060985,36.585092635010284,
AF3,146.37847601104593,42.96146212349212,125.71453426675596,55.623791649413256,37.68747793320611,
T7,224.8525665453134,19.494631762321617,70.2276637997391,24.704689385656707,53.4220329835808,
Pz,14.162901222917409,5.181930778425868,23.311784021379452,2.973525156349677,10.719865666439123,
T8,58.21979063810626,33.59376112079891,336.442946829581,92.64857979866568,54.85996846566377,
AF4,66.70915072361935,35.54278633672667,178.73008328213848,107.10854615060985,36.585092635010284,
AF3,146.37847601104593,42.96146212349212,125.71453426675596,55.623791649413256,37.68747793320611,
T7,224.8525665453134,19.494631762321617,70.2276637997391,24.704689385656707,53.4220329835808,
Pz,14.162901222917409,5.181930778425868,23.311784021379452,2.973525156349677,10.719865666439123,
T8,58.21979063810626,33.59376112079891,336.442946829581,92.64857979866568,54.85996846566377,
AF4,66.70915072361935,35.54278633672667,178.73008328213848,107.10854615060985,36.585092635010284,
AF3,146.37847601104593,42.96146212349212,125.71453426675596,55.623791649413256,37.68747793320611,
T7,224.8525665453134,19.494631762321617,70.2276637997391,24.704689385656707,53.4220329835808,
Pz,14.162901222917409,5.181930778425868,23.311784021379452,2.973525156349677,10.719865666439123,
T8,58.21979063810626,33.59376112079891,336.442946829581,92.64857979866568,54.85996846566377,
AF4,66.70915072361935,35.54278633672667,178.73008328213848,107.10854615060985,36.585092635010284,
AF3,146.37847601104593,42.96146212349212,125.71453426675596,55.623791649413256,37.68747793320611,
T7,224.8525665453134,19.494631762321617,70.2276637997391,24.704689385656707,53.4220329835808,
Pz,14.162901222917409,5.181930778425868,23.311784021379452,2.973525156349677,10.719865666439123,
T8,58.21979063810626,33.59376112079891,336.442946829581,92.64857979866568,54.85996846566377,
AF4,66.70915072361935,35.54278633672667,178.73008328213848,107.10854615060985,36.585092635010284,
AF3,146.37847601104593,42.96146212349212,125.71453426675596,55.623791649413256,37.68747793320611,
T7,224.8525665453134,19.494631762321617,70.2276637997391,24.704689385656707,53.4220329835808,
Pz,14.162901222917409,5.181930778425868,23.311784021379452,2.973525156349677,10.719865666439123,
T8,58.21979063810626,33.59376112079891,336.442946829581,92.64857979866568,54.85996846566377,
AF4,66.70915072361935,35.54278633672667,178.73008328213848,107.10854615060985,36.585092635010284,
AF3,146.37847601104593,42.96146212349212,125.71453426675596,55.623791649413256,37.68747793320611,
T7,224.8525665453134,19.494631762321617,70.2276637997391,24.704689385656707,53.4220329835808,
Pz,14.162901222917409,5.181930778425868,23.311784021379452,2.973525156349677,10.719865666439123,
T8,58.21979063810626,33.59376112079891,336.442946829581,92.64857979866568,54.85996846566377,
AF4,66.70915072361935,35.54278633672667,178.73008328213848,107.10854615060985,36.585092635010284,
AF3,146.37847601104593,42.96146212349212,125.71453426675596,55.623791649413256,37.68747793320611,
T7,224.8525665453134,19.494631762321617,70.2276637997391,24.704689385656707,53.4220329835808,
Pz,14.162901222917409,5.181930778425868,23.311784021379452,2.973525156349677,10.719865666439123,
T8,58.21979063810626,33.59376112079891,336.442946829581,92.64857979866568,54.85996846566377,
AF4,66.70915072361935,35.54278633672667,178.73008328213848,107.10854615060985,36.585092635010284,
AF3,146.37847601104593,42.96146212349212,125.71453426675596,55.623791649413256,37.68747793320611,
T7,224.8525665453134,19.494631762321617,70.2276637997391,24.704689385656707,53.4220329835808,
Pz,14.162901222917409,5.181930778425868,23.311784021379452,2.973525156349677,10.719865666439123,
T8,58.21979063810626,33.59376112079891,336.442946829581,92.64857979866568,54.85996846566377,
AF4,66.70915072361935,35.54278633672667,178.73008328213848,107.10854615060985,36.585092635010284,
AF3,146.37847601104593,42.96146212349212,125.71453426675596,55.623791649413256,37.68747793320611,
T7,224.8525665453134,19.494631762321617,70.2276637997391,24.704689385656707,53.4220329835808,
Pz,14.162901222917409,5.181930778425868,23.311784021379452,2.973525156349677,10.719865666439123,
T8,58.21979063810626,33.59376112079891,336.442946829581,92.64857979866568,54.85996846566377,
AF4,66.70915072361935,35.54278633672667,178.73008328213848,107.10854615060985,36.585092635010284,
AF3,146.37847601104593,42.96146212349212,125.71453426675596,55.623791649413256,37.68747793320611,
T7,224.8525665453134,19.494631762321617,70.2276637997391,24.704689385656707,53.4220329835808,
Pz,14.162901222917409,5.181930778425868,23.311784021379452,2.973525156349677,10.719865666439123,
T8,58.21979063810626,33.59376112079891,336.442946829581,92.64857979866568,54.85996846566377,
AF4,66.70915072361935,35.54278633672667,178.73008328213848,107.10854615060985,36.585092635010284,
AF3,146.37847601104593,42.96146212349212,125.71453426675596,55.623791649413256,37.68747793320611,
T7,224.8525665453134,19.494631762321617,70.2276637997391,24.704689385656707,53.4220329835808,
Pz,14.162901222917409,5.181930778425868,23.311784021379452,2.973525156349677,10.719865666439123,
T8,58.21979063810626,33.59376112079891,336.442946829581,92.64857979866568,54.85996846566377,
AF4,66.70915072361935,35.54278633672667,178.73008328213848,107.10854615060985,36.585092635010284,
AF3,146.37847601104593,42.96146212349212,125.71453426675596,55.623791649413256,37.68747793320611,
T7,224.8525665453134,19.494631762321617,70.2276637997391,24.704689385656707,53.4220329835808,
Pz,14.162901222917409,5.181930778425868,23.311784021379452,2.973525156349677,10.719865666439123,
T8,58.21979063810626,33.59376112079891,336.442946829581,92.64857979866568,54.85996846566377,
AF4,66.70915072361935,35.54278633672667,178.73008328213848,107.10854615060985,36.585092635010284,
AF3,146.37847601104593,42.96146212349212,125.71453426675596,55.623791649413256,37.68747793320611,
T7,224.8525665453134,19.494631762321617,70.2276637997391,24.704689385656707,53.4220329835808,
Pz,14.162901222917409,5.181930778425868,23.311784021379452,2.973525156349677,10.719865666439123,
T8,58.21979063810626,33.59376112079891,336.442946829581,92.64857979866568,54.85996846566377,
AF4,66.70915072361935,35.54278633672667,178.73008328213848,107.10854615060985,36.585092635010284,
AF3,146.37847601104593,42.96146212349212,125.71453426675596,55.623791649413256,37.68747793320611,
T7,224.8525665453134,19.494631762321617,70.2276637997391,24.704689385656707,53.4220329835808,
Pz,14.162901222917409,5.181930778425868,23.311784021379452,2.973525156349677,10.719865666439123,
T8,58.21979063810626,33.59376112079891,336.442946829581,92.64857979866568,54.85996846566377,
AF4,66.70915072361935,35.54278633672667,178.73008328213848,107.10854615060985,36.585092635010284,
AF3,146.37847601104593,42.96146212349212,125.71453426675596,55.623791649413256,37.68747793320611,
T7,224.8525665453134,19.494631762321617,70.2276637997391,24.704689385656707,53.4220329835808,
Pz,14.162901222917409,5.181930778425868,23.311784021379452,2.973525156349677,10.719865666439123,
T8,58.21979063810626,33.59376112079891,336.442946829581,92.64857979866568,54.85996846566377,
AF4,66.70915072361935,35.54278633672667,178.73008328213848,107.10854615060985,36.585092635010284,
AF3,146.37847601104593,42.96146212349212,125.71453426675596,55.623791649413256,37.68747793320611,
T7,224.8525665453134,19.494631762321617,70.2276637997391,24.704689385656707,53.4220329835808,
Pz,14.162901222917409,5.181930778425868,23.311784021379452,2.973525156349677,10.719865666439123,
T8,58.21979063810626,33.59376112079891,336.442946829581,92.64857979866568,54.85996846566377,
AF4,66.70915072361935,35.54278633672667,178.73008328213848,107.10854615060985,36.585092635010284,
AF3,146.37847601104593,42.96146212349212,125.71453426675596,55.623791649413256,37.68747793320611,
T7,224.8525665453134,19.494631762321617,70.2276637997391,24.704689385656707,53.4220329835808,
Pz,14.162901222917409,5.181930778425868,23.311784021379452,2.973525156349677,10.719865666439123,
T8,58.21979063810626,33.59376112079891,336.442946829581,92.64857979866568,54.85996846566377,
AF4,66.70915072361935,35.54278633672667,178.73008328213848,107.10854615060985,36.585092635010284,
AF3,146.37847601104593,42.96146212349212,125.71453426675596,55.623791649413256,37.68747793320611,
T7,224.8525665453134,19.494631762321617,70.2276637997391,24.704689385656707,53.4220329835808,
Pz,14.162901222917409,5.181930778425868,23.311784021379452,2.973525156349677,10.719865666439123,
T8,58.21979063810626,33.59376112079891,336.442946829581,92.64857979866568,54.85996846566377,
AF4,66.70915072361935,35.54278633672667,178.73008328213848,107.10854615060985,36.585092635010284,
AF3,146.37847601104593,42.96146212349212,125.71453426675596,55.623791649413256,37.68747793320611,
T7,224.8525665453134,19.494631762321617,70.2276637997391,24.704689385656707,53.4220329835808,
Pz,14.162901222917409,5.181930778425868,23.311784021379452,2.973525156349677,10.719865666439123,
T8,58.21979063810626,33.59376112079891,336.442946829581,92.64857979866568,54.85996846566377,
AF4,66.70915072361935,35.54278633672667,178.73008328213848,107.10854615060985,36.585092635010284,
AF3,146.37847601104593,42.96146212349212,125.71453426675596,55.623791649413256,37.68747793320611,
T7,224.8525665453134,19.494631762321617,70.2276637997391,24.704689385656707,53.4220329835808,
Pz,14.162901222917409,5.181930778425868,23.311784021379452,2.973525156349677,10.719865666439123,
T8,58.21979063810626,33.59376112079891,336.442946829581,92.64857979866568,54.85996846566377,
AF4,66.70915072361935,35.54278633672667,178.73008328213848,107.10854615060985,36.585092635010284,
AF3,146.37847601104593,42.96146212349212,125.71453426675596,55.623791649413256,37.68747793320611,
T7,224.8525665453134,19.494631762321617,70.2276637997391,24.704689385656707,53.4220329835808,
Pz,14.162901222917409,5.181930778425868,23.311784021379452,2.973525156349677,10.719865666439123,
T8,58.21979063810626,33.59376112079891,336.442946829581,92.64857979866568,54.85996846566377,
AF4,66.70915072361935,35.54278633672667,178.73008328213848,107.10854615060985,36.585092635010284,
AF3,146.37847601104593,42.96146212349212,125.71453426675596,55.623791649413256,37.68747793320611,
T7,224.8525665453134,19.494631762321617,70.2276637997391,24.704689385656707,53.4220329835808,
Pz,14.162901222917409,5.181930778425868,23.311784021379452,2.973525156349677,10.719865666439123,
T8,58.21979063810626,33.59376112079891,336.442946829581,92.64857979866568,54.85996846566377,
AF4,66.70915072361935,35.54278633672667,178.73008328213848,107.10854615060985,36.585092635010284,
AF3,146.37847601104593,42.96146212349212,125.71453426675596,55.623791649413256,37.68747793320611,
T7,224.8525665453134,19.494631762321617,70.2276637997391,24.704689385656707,53.4220329835808,
Pz,14.162901222917409,5.181930778425868,23.311784021379452,2.973525156349677,10.719865666439123,
T8,58.21979063810626,33.59376112079891,336.442946829581,92.64857979866568,54.85996846566377,
AF4,66.70915072361935,35.54278633672667,178.73008328213848,107.10854615060985,36.585092635010284,
AF3,146.37847601104593,42.96146212349212,125.71453426675596,55.623791649413256,37.68747793320611,
T7,224.8525665453134,19.494631762321617,70.2276637997391,24.704689385656707,53.4220329835808,
Pz,14.162901222917409,5.181930778425868,23.311784021379452,2.973525156349677,10.719865666439123,
T8,58.21979063810626,33.59376112079891,336.442946829581,92.64857979866568,54.85996846566377,
AF4,66.70915072361935,35.54278633672667,178.73008328213848,107.10854615060985,36.585092635010284,
AF3,146.37847601104593,42.96146212349212,125.71453426675596,55.623791649413256,37.68747793320611,
T7,224.8525665453134,19.494631762321617,70.2276637997391,24.704689385656707,53.4220329835808,
Pz,14.162901222917409,5.181930778425868,23.311784021379452,2.973525156349677,10.719865666439123,
T8,58.21979063810626,33.59376112079891,336.442946829581,92.64857979866568,54.85996846566377,
AF4,66.70915072361935,35.54278633672667,178.73008328213848,107.10854615060985,36.585092635010284,
AF3,146.37847601104593,42.96146212349212,125.71453426675596,55.623791649413256,37.68747793320611,
T7,224.8525665453134,19.494631762321617,70.2276637997391,24.704689385656707,53.4220329835808,
Pz,14.162901222917409,5.181930778425868,23.311784021379452,2.973525156349677,10.719865666439123,
T8,58.21979063810626,33.59376112079891,336.442946829581,92.64857979866568,54.85996846566377,
AF4,66.70915072361935,35.54278633672667,178.73008328213848,107.10854615060985,36.585092635010284,
AF3,146.37847601104593,42.96146212349212,125.71453426675596,55.623791649413256,37.68747793320611,
T7,224.8525665453134,19.494631762321617,70.2276637997391,24.704689385656707,53.4220329835808,
Pz,14.162901222917409,5.181930778425868,23.311784021379452,2.973525156349677,10.719865666439123,
T8,58.21979063810626,33.59376112079891,336.442946829581,92.64857979866568,54.85996846566377,
AF4,66.70915072361935,35.54278633672667,178.73008328213848,107.10854615060985,36.585092635010284,
AF3,146.37847601104593,42.96146212349212,125.71453426675596,55.623791649413256,37.68747793320611,
T7,224.8525665453134,19.494631762321617,70.2276637997391,24.704689385656707,53.4220329835808,
Pz,14.162901222917409,5.181930778425868,23.311784021379452,2.973525156349677,10.719865666439123,
T8,58.21979063810626,33.59376112079891,336.442946829581,92.64857979866568,54.85996846566377,
AF4,66.70915072361935,35.54278633672667,178.73008328213848,107.10854615060985,36.585092635010284,
AF3,146.37847601104593,42.96146212349212,125.71453426675596,55.623791649413256,37.68747793320611,
T7,224.8525665453134,19.494631762321617,70.2276637997391,24.704689385656707,53.4220329835808,
Pz,14.162901222917409,5.181930778425868,23.311784021379452,2.973525156349677,10.719865666439123,
T8,58.21979063810626,33.59376112079891,336.442946829581,92.64857979866568,54.85996846566377,
AF4,66.70915072361935,35.54278633672667,178.73008328213848,107.10854615060985,36.585092635010284,
AF3,146.37847601104593,42.96146212349212,125.71453426675596,55.623791649413256,37.68747793320611,
T7,224.8525665453134,19.494631762321617,70.2276637997391,24.704689385656707,53.4220329835808,
Pz,14.162901222917409,5.181930778425868,23.311784021379452,2.973525156349677,10.719865666439123,
T8,58.21979063810626,33.59376112079891,336.442946829581,92.64857979866568,54.85996846566377,
AF4,66.70915072361935,35.54278633672667,178.73008328213848,107.10854615060985,36.585092635010284,
AF3,146.37847601104593,42.96146212349212,125.71453426675596,55.623791649413256,37.68747793320611,
T7,224.8525665453134,19.494631762321617,70.2276637997391,24.704689385656707,53.4220329835808,
Pz,14.162901222917409,5.181930778425868,23.311784021379452,2.973525156349677,10.719865666439123,
T8,58.21979063810626,33.59376112079891,336.442946829581,92.64857979866568,54.85996846566377,
AF4,66.70915072361935,35.54278633672667,178.73008328213848,107.10854615060985,36.585092635010284,
AF3,146.37847601104593,42.96146212349212,125.71453426675596,55.623791649413256,37.68747793320611,
T7,224.8525665453134,19.494631762321617,70.2276637997391,24.704689385656707,53.4220329835808,
Pz,14.162901222917409,5.181930778425868,23.311784021379452,2.973525156349677,10.719865666439123,
T8,58.21979063810626,33.59376112079891,336.442946829581,92.64857979866568,54.85996846566377,
AF4,66.70915072361935,35.54278633672667,178.73008328213848,107.10854615060985,36.585092635010284,
AF3,146.37847601104593,42.96146212349212,125.71453426675596,55.623791649413256,37.68747793320611,
T7,224.8525665453134,19.494631762321617,70.2276637997391,24.704689385656707,53.4220329835808,
Pz,14.162901222917409,5.181930778425868,23.311784021379452,2.973525156349677,10.719865666439123,
T8,58.21979063810626,33.59376112079891,336.442946829581,92.64857979866568,54.85996846566377,
AF4,66.70915072361935,35.54278633672667,178.73008328213848,107.10854615060985,36.585092635010284,
AF3,146.37847601104593,42.96146212349212,125.71453426675596,55.623791649413256,37.68747793320611,
T7,224.8525665453134,19.494631762321617,70.2276637997391,24.704689385656707,53.4220329835808,
Pz,14.162901222917409,5.181930778425868,23.311784021379452,2.973525156349677,10.719865666439123,
T8,58.21979063810626,33.59376112079891,336.442946829581,92.64857979866568,54.85996846566377,
AF4,66.70915072361935,35.54278633672667,178.73008328213848,107.10854615060985,36.585092635010284,
AF3,146.37847601104593,42.96146212349212,125.71453426675596,55.623791649413256,37.68747793320611,
T7,224.8525665453134,19.494631762321617,70.2276637997391,24.704689385656707,53.4220329835808,
Pz,14.162901222917409,5.181930778425868,23.311784021379452,2.973525156349677,10.719865666439123,
T8,58.21979063810626,33.59376112079891,336.442946829581,92.64857979866568,54.85996846566377,
AF4,66.70915072361935,35.54278633672667,178.73008328213848,107.10854615060985,36.585092635010284,
AF3,146.37847601104593,42.96146212349212,125.71453426675596,55.623791649413256,37.68747793320611,
T7,224.8525665453134,19.494631762321617,70.2276637997391,24.704689385656707,53.4220329835808,
Pz,14.162901222917409,5.181930778425868,23.311784021379452,2.973525156349677,10.719865666439123,
T8,58.21979063810626,33.59376112079891,336.442946829581,92.64857979866568,54.85996846566377,
AF4,66.70915072361935,35.54278633672667,178.73008328213848,107.10854615060985,36.585092635010284,
AF3,146.37847601104593,42.96146212349212,125.71453426675596,55.623791649413256,37.68747793320611,
T7,224.8525665453134,19.494631762321617,70.2276637997391,24.704689385656707,53.4220329835808,
Pz,14.162901222917409,5.181930778425868,23.311784021379452,2.973525156349677,10.719865666439123,
T8,58.21979063810626,33.59376112079891,336.442946829581,92.64857979866568,54.85996846566377,
AF4,66.70915072361935,35.54278633672667,178.73008328213848,107.10854615060985,36.585092635010284,
AF3,146.37847601104593,42.96146212349212,125.71453426675596,55.623791649413256,37.68747793320611,
T7,224.8525665453134,19.494631762321617,70.2276637997391,24.704689385656707,53.4220329835808,
Pz,14.162901222917409,5.181930778425868,23.311784021379452,2.973525156349677,10.719865666439123,
T8,58.21979063810626,33.59376112079891,336.442946829581,92.64857979866568,54.85996846566377,
AF4,66.70915072361935,35.54278633672667,178.73008328213848,107.10854615060985,36.585092635010284,
AF3,146.37847601104593,42.96146212349212,125.71453426675596,55.623791649413256,37.68747793320611,
T7,224.8525665453134,19.494631762321617,70.2276637997391,24.704689385656707,53.4220329835808,
Pz,14.162901222917409,5.181930778425868,23.311784021379452,2.973525156349677,10.719865666439123,
T8,58.21979063810626,33.59376112079891,336.442946829581,92.64857979866568,54.85996846566377,
AF4,66.70915072361935,35.54278633672667,178.73008328213848,107.10854615060985,36.585092635010284,
AF3,146.37847601104593,42.96146212349212,125.71453426675596,55.623791649413256,37.68747793320611,
T7,224.8525665453134,19.494631762321617,70.2276637997391,24.704689385656707,53.4220329835808,
Pz,14.162901222917409,5.181930778425868,23.311784021379452,2.973525156349677,10.719865666439123,
T8,58.21979063810626,33.59376112079891,336.442946829581,92.64857979866568,54.85996846566377,
AF4,66.70915072361935,35.54278633672667,178.73008328213848,107.10854615060985,36.585092635010284,
AF3,146.37847601104593,42.96146212349212,125.71453426675596,55.623791649413256,37.68747793320611,
T7,224.8525665453134,19.494631762321617,70.2276637997391,24.704689385656707,53.4220329835808,
Pz,14.162901222917409,5.181930778425868,23.311784021379452,2.973525156349677,10.719865666439123,
T8,58.21979063810626,33.59376112079891,336.442946829581,92.64857979866568,54.85996846566377,
AF4,66.70915072361935,35.54278633672667,178.73008328213848,107.10854615060985,36.585092635010284,
AF3,146.37847601104593,42.96146212349212,125.71453426675596,55.623791649413256,37.68747793320611,
T7,224.8525665453134,19.494631762321617,70.2276637997391,24.704689385656707,53.4220329835808,
Pz,14.162901222917409,5.181930778425868,23.311784021379452,2.973525156349677,10.719865666439123,
T8,58.21979063810626,33.59376112079891,336.442946829581,92.64857979866568,54.85996846566377,
AF4,66.70915072361935,35.54278633672667,178.73008328213848,107.10854615060985,36.585092635010284,
AF3,146.37847601104593,42.96146212349212,125.71453426675596,55.623791649413256,37.68747793320611,
T7,224.8525665453134,19.494631762321617,70.2276637997391,24.704689385656707,53.4220329835808,
Pz,14.162901222917409,5.181930778425868,23.311784021379452,2.973525156349677,10.719865666439123,
T8,58.21979063810626,33.59376112079891,336.442946829581,92.64857979866568,54.85996846566377,
AF4,66.70915072361935,35.54278633672667,178.73008328213848,107.10854615060985,36.585092635010284,
AF3,146.37847601104593,42.96146212349212,125.71453426675596,55.623791649413256,37.68747793320611,
T7,224.8525665453134,19.494631762321617,70.2276637997391,24.704689385656707,53.4220329835808,
Pz,14.162901222917409,5.181930778425868,23.311784021379452,2.973525156349677,10.719865666439123,
T8,58.21979063810626,33.59376112079891,336.442946829581,92.64857979866568,54.85996846566377,
AF4,66.70915072361935,35.54278633672667,178.73008328213848,107.10854615060985,36.585092635010284,
AF3,146.37847601104593,42.96146212349212,125.71453426675596,55.623791649413256,37.68747793320611,
T7,224.8525665453134,19.494631762321617,70.2276637997391,24.704689385656707,53.4220329835808,
Pz,14.162901222917409,5.181930778425868,23.311784021379452,2.973525156349677,10.719865666439123,
T8,58.21979063810626,33.59376112079891,336.442946829581,92.64857979866568,54.85996846566377,
AF4,66.70915072361935,35.54278633672667,178.73008328213848,107.10854615060985,36.585092635010284,
AF3,146.37847601104593,42.96146212349212,125.71453426675596,55.623791649413256,37.68747793320611,
T7,224.8525665453134,19.494631762321617,70.2276637997391,24.704689385656707,53.4220329835808,
Pz,14.162901222917409,5.181930778425868,23.311784021379452,2.973525156349677,10.719865666439123,
T8,58.21979063810626,33.59376112079891,336.442946829581,92.64857979866568,54.85996846566377,
AF4,66.70915072361935,35.54278633672667,178.73008328213848,107.10854615060985,36.585092635010284,
AF3,146.37847601104593,42.96146212349212,125.71453426675596,55.623791649413256,37.68747793320611,
T7,224.8525665453134,19.494631762321617,70.2276637997391,24.704689385656707,53.4220329835808,
Pz,14.162901222917409,5.181930778425868,23.311784021379452,2.973525156349677,10.719865666439123,
T8,58.21979063810626,33.59376112079891,336.442946829581,92.64857979866568,54.85996846566377,
AF4,66.70915072361935,35.54278633672667,178.73008328213848,107.10854615060985,36.585092635010284,
AF3,146.37847601104593,42.96146212349212,125.71453426675596,55.623791649413256,37.68747793320611,
T7,224.8525665453134,19.494631762321617,70.2276637997391,24.704689385656707,53.4220329835808,
Pz,14.162901222917409,5.181930778425868,23.311784021379452,2.973525156349677,10.719865666439123,
T8,58.21979063810626,33.59376112079891,336.442946829581,92.64857979866568,54.85996846566377,
AF4,66.70915072361935,35.54278633672667,178.73008328213848,107.10854615060985,36.585092635010284,
AF3,146.37847601104593,42.96146212349212,125.71453426675596,55.623791649413256,37.68747793320611,
T7,224.8525665453134,19.494631762321617,70.2276637997391,24.704689385656707,53.4220329835808,
Pz,14.162901222917409,5.181930778425868,23.311784021379452,2.973525156349677,10.719865666439123,
T8,58.21979063810626,33.59376112079891,336.442946829581,92.64857979866568,54.85996846566377,
AF4,66.70915072361935,35.54278633672667,178.73008328213848,107.10854615060985,36.585092635010284,
AF3,146.37847601104593,42.96146212349212,125.71453426675596,55.623791649413256,37.68747793320611,
T7,224.8525665453134,19.494631762321617,70.2276637997391,24.704689385656707,53.4220329835808,
Pz,14.162901222917409,5.181930778425868,23.311784021379452,2.973525156349677,10.719865666439123,
T8,58.21979063810626,33.59376112079891,336.442946829581,92.64857979866568,54.85996846566377,
AF4,66.70915072361935,35.54278633672667,178.73008328213848,107.10854615060985,36.585092635010284,
AF3,146.37847601104593,42.96146212349212,125.71453426675596,55.623791649413256,37.68747793320611,
T7,224.8525665453134,19.494631762321617,70.2276637997391,24.704689385656707,53.4220329835808,
Pz,14.162901222917409,5.181930778425868,23.311784021379452,2.973525156349677,10.719865666439123,
T8,58.21979063810626,33.59376112079891,336.442946829581,92.64857979866568,54.85996846566377,
AF4,66.70915072361935,35.54278633672667,178.73008328213848,107.10854615060985,36.585092635010284,
AF3,146.37847601104593,42.96146212349212,125.71453426675596,55.623791649413256,37.68747793320611,
T7,224.8525665453134,19.494631762321617,70.2276637997391,24.704689385656707,53.4220329835808,
Pz,14.162901222917409,5.181930778425868,23.311784021379452,2.973525156349677,10.719865666439123,
T8,58.21979063810626,33.59376112079891,336.442946829581,92.64857979866568,54.85996846566377,
AF4,66.70915072361935,35.54278633672667,178.73008328213848,107.10854615060985,36.585092635010284,
AF3,146.37847601104593,42.96146212349212,125.71453426675596,55.623791649413256,37.68747793320611,
T7,224.8525665453134,19.494631762321617,70.2276637997391,24.704689385656707,53.4220329835808,
Pz,14.162901222917409,5.181930778425868,23.311784021379452,2.973525156349677,10.719865666439123,
T8,58.21979063810626,33.59376112079891,336.442946829581,92.64857979866568,54.85996846566377,
AF4,66.70915072361935,35.54278633672667,178.73008328213848,107.10854615060985,36.585092635010284,
AF3,146.37847601104593,42.96146212349212,125.71453426675596,55.623791649413256,37.68747793320611,
T7,224.8525665453134,19.494631762321617,70.2276637997391,24.704689385656707,53.4220329835808,
Pz,14.162901222917409,5.181930778425868,23.311784021379452,2.973525156349677,10.719865666439123,
T8,58.21979063810626,33.59376112079891,336.442946829581,92.64857979866568,54.85996846566377,
AF4,66.70915072361935,35.54278633672667,178.73008328213848,107.10854615060985,36.585092635010284,
AF3,146.37847601104593,42.96146212349212,125.71453426675596,55.623791649413256,37.68747793320611,
T7,224.8525665453134,19.494631762321617,70.2276637997391,24.704689385656707,53.4220329835808,
Pz,14.162901222917409,5.181930778425868,23.311784021379452,2.973525156349677,10.719865666439123,
T8,58.21979063810626,33.59376112079891,336.442946829581,92.64857979866568,54.85996846566377,
AF4,66.70915072361935,35.54278633672667,178.73008328213848,107.10854615060985,36.585092635010284,
AF3,146.37847601104593,42.96146212349212,125.71453426675596,55.623791649413256,37.68747793320611,
T7,224.8525665453134,19.494631762321617,70.2276637997391,24.704689385656707,53.4220329835808,
Pz,14.162901222917409,5.181930778425868,23.311784021379452,2.973525156349677,10.719865666439123,
T8,58.21979063810626,33.59376112079891,336.442946829581,92.64857979866568,54.85996846566377,
AF4,66.70915072361935,35.54278633672667,178.73008328213848,107.10854615060985,36.585092635010284,
AF3,146.37847601104593,42.96146212349212,125.71453426675596,55.623791649413256,37.68747793320611,
T7,224.8525665453134,19.494631762321617,70.2276637997391,24.704689385656707,53.4220329835808,
Pz,14.162901222917409,5.181930778425868,23.311784021379452,2.973525156349677,10.719865666439123,
T8,58.21979063810626,33.59376112079891,336.442946829581,92.64857979866568,54.85996846566377,
AF4,66.70915072361935,35.54278633672667,178.73008328213848,107.10854615060985,36.585092635010284,
AF3,146.37847601104593,42.96146212349212,125.71453426675596,55.623791649413256,37.68747793320611,
T7,224.8525665453134,19.494631762321617,70.2276637997391,24.704689385656707,53.4220329835808,
Pz,14.162901222917409,5.181930778425868,23.311784021379452,2.973525156349677,10.719865666439123,
T8,58.21979063810626,33.59376112079891,336.442946829581,92.64857979866568,54.85996846566377,
AF4,66.70915072361935,35.54278633672667,178.73008328213848,107.10854615060985,36.585092635010284,
AF3,146.37847601104593,42.96146212349212,125.71453426675596,55.623791649413256,37.68747793320611,
T7,224.8525665453134,19.494631762321617,70.2276637997391,24.704689385656707,53.4220329835808,
Pz,14.162901222917409,5.181930778425868,23.311784021379452,2.973525156349677,10.719865666439123,
T8,58.21979063810626,33.59376112079891,336.442946829581,92.64857979866568,54.85996846566377,
AF4,66.70915072361935,35.54278633672667,178.73008328213848,107.10854615060985,36.585092635010284,
AF3,146.37847601104593,42.96146212349212,125.71453426675596,55.623791649413256,37.68747793320611,
T7,224.8525665453134,19.494631762321617,70.2276637997391,24.704689385656707,53.4220329835808,
Pz,14.162901222917409,5.181930778425868,23.311784021379452,2.973525156349677,10.719865666439123,
T8,58.21979063810626,33.59376112079891,336.442946829581,92.64857979866568,54.85996846566377,
AF4,66.70915072361935,35.54278633672667,178.73008328213848,107.10854615060985,36.585092635010284,
AF3,146.37847601104593,42.96146212349212,125.71453426675596,55.623791649413256,37.68747793320611,
T7,224.8525665453134,19.494631762321617,70.2276637997391,24.704689385656707,53.4220329835808,
Pz,14.162901222917409,5.181930778425868,23.311784021379452,2.973525156349677,10.719865666439123,
T8,58.21979063810626,33.59376112079891,336.442946829581,92.64857979866568,54.85996846566377,
AF4,66.70915072361935,35.54278633672667,178.73008328213848,107.10854615060985,36.585092635010284,
AF3,146.37847601104593,42.96146212349212,125.71453426675596,55.623791649413256,37.68747793320611,
T7,224.8525665453134,19.494631762321617,70.2276637997391,24.704689385656707,53.4220329835808,
Pz,14.162901222917409,5.181930778425868,23.311784021379452,2.973525156349677,10.719865666439123,
T8,58.21979063810626,33.59376112079891,336.442946829581,92.64857979866568,54.85996846566377,
AF4,66.70915072361935,35.54278633672667,178.73008328213848,107.10854615060985,36.585092635010284,
AF3,146.37847601104593,42.96146212349212,125.71453426675596,55.623791649413256,37.68747793320611,
T7,224.8525665453134,19.494631762321617,70.2276637997391,24.704689385656707,53.4220329835808,
Pz,14.162901222917409,5.181930778425868,23.311784021379452,2.973525156349677,10.719865666439123,
T8,58.21979063810626,33.59376112079891,336.442946829581,92.64857979866568,54.85996846566377,
AF4,66.70915072361935,35.54278633672667,178.73008328213848,107.10854615060985,36.585092635010284,
AF3,146.37847601104593,42.96146212349212,125.71453426675596,55.623791649413256,37.68747793320611,
T7,224.8525665453134,19.494631762321617,70.2276637997391,24.704689385656707,53.4220329835808,
Pz,14.162901222917409,5.181930778425868,23.311784021379452,2.973525156349677,10.719865666439123,
T8,58.21979063810626,33.59376112079891,336.442946829581,92.64857979866568,54.85996846566377,
AF4,66.70915072361935,35.54278633672667,178.73008328213848,107.10854615060985,36.585092635010284,
AF3,146.37847601104593,42.96146212349212,125.71453426675596,55.623791649413256,37.68747793320611,
T7,224.8525665453134,19.494631762321617,70.2276637997391,24.704689385656707,53.4220329835808,
Pz,14.162901222917409,5.181930778425868,23.311784021379452,2.973525156349677,10.719865666439123,
T8,58.21979063810626,33.59376112079891,336.442946829581,92.64857979866568,54.85996846566377,
AF4,66.70915072361935,35.54278633672667,178.73008328213848,107.10854615060985,36.585092635010284,
AF3,146.37847601104593,42.96146212349212,125.71453426675596,55.623791649413256,37.68747793320611,
T7,224.8525665453134,19.494631762321617,70.2276637997391,24.704689385656707,53.4220329835808,
Pz,14.162901222917409,5.181930778425868,23.311784021379452,2.973525156349677,10.719865666439123,
T8,58.21979063810626,33.59376112079891,336.442946829581,92.64857979866568,54.85996846566377,
AF4,66.70915072361935,35.54278633672667,178.73008328213848,107.10854615060985,36.585092635010284,
AF3,146.37847601104593,42.96146212349212,125.71453426675596,55.623791649413256,37.68747793320611,
T7,224.8525665453134,19.494631762321617,70.2276637997391,24.704689385656707,53.4220329835808,
Pz,14.162901222917409,5.181930778425868,23.311784021379452,2.973525156349677,10.719865666439123,
T8,58.21979063810626,33.59376112079891,336.442946829581,92.64857979866568,54.85996846566377,
AF4,66.70915072361935,35.54278633672667,178.73008328213848,107.10854615060985,36.585092635010284,
AF3,146.37847601104593,42.96146212349212,125.71453426675596,55.623791649413256,37.68747793320611,
T7,224.8525665453134,19.494631762321617,70.2276637997391,24.704689385656707,53.4220329835808,
Pz,14.162901222917409,5.181930778425868,23.311784021379452,2.973525156349677,10.719865666439123,
T8,58.21979063810626,33.59376112079891,336.442946829581,92.64857979866568,54.85996846566377,
AF4,66.70915072361935,35.54278633672667,178.73008328213848,107.10854615060985,36.585092635010284,
AF3,146.37847601104593,42.96146212349212,125.71453426675596,55.623791649413256,37.68747793320611,
T7,224.8525665453134,19.494631762321617,70.2276637997391,24.704689385656707,53.4220329835808,
Pz,14.162901222917409,5.181930778425868,23.311784021379452,2.973525156349677,10.719865666439123,
T8,58.21979063810626,33.59376112079891,336.442946829581,92.64857979866568,54.85996846566377,
AF4,66.70915072361935,35.54278633672667,178.73008328213848,107.10854615060985,36.585092635010284,
AF3,146.37847601104593,42.96146212349212,125.71453426675596,55.623791649413256,37.68747793320611,
T7,224.8525665453134,19.494631762321617,70.2276637997391,24.704689385656707,53.4220329835808,
Pz,14.162901222917409,5.181930778425868,23.311784021379452,2.973525156349677,10.719865666439123,
T8,58.21979063810626,33.59376112079891,336.442946829581,92.64857979866568,54.85996846566377,
AF4,66.70915072361935,35.54278633672667,178.73008328213848,107.10854615060985,36.585092635010284,
AF3,146.37847601104593,42.96146212349212,125.71453426675596,55.623791649413256,37.68747793320611,
T7,224.8525665453134,19.494631762321617,70.2276637997391,24.704689385656707,53.4220329835808,
Pz,14.162901222917409,5.181930778425868,23.311784021379452,2.973525156349677,10.719865666439123,
T8,58.21979063810626,33.59376112079891,336.442946829581,92.64857979866568,54.85996846566377,
AF4,66.70915072361935,35.54278633672667,178.73008328213848,107.10854615060985,36.585092635010284,
AF3,146.37847601104593,42.96146212349212,125.71453426675596,55.623791649413256,37.68747793320611,
T7,224.8525665453134,19.494631762321617,70.2276637997391,24.704689385656707,53.4220329835808,
Pz,14.162901222917409,5.181930778425868,23.311784021379452,2.973525156349677,10.719865666439123,
T8,58.21979063810626,33.59376112079891,336.442946829581,92.64857979866568,54.85996846566377,
AF4,66.70915072361935,35.54278633672667,178.73008328213848,107.10854615060985,36.585092635010284,
AF3,146.37847601104593,42.96146212349212,125.71453426675596,55.623791649413256,37.68747793320611,
T7,224.8525665453134,19.494631762321617,70.2276637997391,24.704689385656707,53.4220329835808,
Pz,14.162901222917409,5.181930778425868,23.311784021379452,2.973525156349677,10.719865666439123,
T8,58.21979063810626,33.59376112079891,336.442946829581,92.64857979866568,54.85996846566377,
AF4,66.70915072361935,35.54278633672667,178.73008328213848,107.10854615060985,36.585092635010284,
AF3,146.37847601104593,42.96146212349212,125.71453426675596,55.623791649413256,37.68747793320611,
T7,224.8525665453134,19.494631762321617,70.2276637997391,24.704689385656707,53.4220329835808,
Pz,14.162901222917409,5.181930778425868,23.311784021379452,2.973525156349677,10.719865666439123,
T8,58.21979063810626,33.59376112079891,336.442946829581,92.64857979866568,54.85996846566377,
AF4,66.70915072361935,35.54278633672667,178.73008328213848,107.10854615060985,36.585092635010284,
AF3,146.37847601104593,42.96146212349212,125.71453426675596,55.623791649413256,37.68747793320611,
T7,224.8525665453134,19.494631762321617,70.2276637997391,24.704689385656707,53.4220329835808,
Pz,14.162901222917409,5.181930778425868,23.311784021379452,2.973525156349677,10.719865666439123,
T8,58.21979063810626,33.59376112079891,336.442946829581,92.64857979866568,54.85996846566377,
AF4,66.70915072361935,35.54278633672667,178.73008328213848,107.10854615060985,36.585092635010284,
AF3,146.37847601104593,42.96146212349212,125.71453426675596,55.623791649413256,37.68747793320611,
T7,224.8525665453134,19.494631762321617,70.2276637997391,24.704689385656707,53.4220329835808,
Pz,14.162901222917409,5.181930778425868,23.311784021379452,2.973525156349677,10.719865666439123,
T8,58.21979063810626,33.59376112079891,336.442946829581,92.64857979866568,54.85996846566377,
AF4,66.70915072361935,35.54278633672667,178.73008328213848,107.10854615060985,36.585092635010284,
AF3,146.37847601104593,42.96146212349212,125.71453426675596,55.623791649413256,37.68747793320611,
T7,224.8525665453134,19.494631762321617,70.2276637997391,24.704689385656707,53.4220329835808,
Pz,14.162901222917409,5.181930778425868,23.311784021379452,2.973525156349677,10.719865666439123,
T8,58.21979063810626,33.59376112079891,336.442946829581,92.64857979866568,54.85996846566377,
AF4,66.70915072361935,35.54278633672667,178.73008328213848,107.10854615060985,36.585092635010284,
AF3,146.37847601104593,42.96146212349212,125.71453426675596,55.623791649413256,37.68747793320611,
T7,224.8525665453134,19.494631762321617,70.2276637997391,24.704689385656707,53.4220329835808,
Pz,14.162901222917409,5.181930778425868,23.311784021379452,2.973525156349677,10.719865666439123,
T8,58.21979063810626,33.59376112079891,336.442946829581,92.64857979866568,54.85996846566377,
AF4,66.70915072361935,35.54278633672667,178.73008328213848,107.10854615060985,36.585092635010284,
AF3,146.37847601104593,42.96146212349212,125.71453426675596,55.623791649413256,37.68747793320611,
T7,224.8525665453134,19.494631762321617,70.2276637997391,24.704689385656707,53.4220329835808,
Pz,14.162901222917409,5.181930778425868,23.311784021379452,2.973525156349677,10.719865666439123,
T8,58.21979063810626,33.59376112079891,336.442946829581,92.64857979866568,54.85996846566377,
AF4,66.70915072361935,35.54278633672667,178.73008328213848,107.10854615060985,36.585092635010284,
AF3,146.37847601104593,42.96146212349212,125.71453426675596,55.623791649413256,37.68747793320611,
T7,224.8525665453134,19.494631762321617,70.2276637997391,24.704689385656707,53.4220329835808,
Pz,14.162901222917409,5.181930778425868,23.311784021379452,2.973525156349677,10.719865666439123,
T8,58.21979063810626,33.59376112079891,336.442946829581,92.64857979866568,54.85996846566377,
AF4,66.70915072361935,35.54278633672667,178.73008328213848,107.10854615060985,36.585092635010284,
AF3,146.37847601104593,42.96146212349212,125.71453426675596,55.623791649413256,37.68747793320611,
T7,224.8525665453134,19.494631762321617,70.2276637997391,24.704689385656707,53.4220329835808,
Pz,14.162901222917409,5.181930778425868,23.311784021379452,2.973525156349677,10.719865666439123,
T8,58.21979063810626,33.59376112079891,336.442946829581,92.64857979866568,54.85996846566377,
AF4,66.70915072361935,35.54278633672667,178.73008328213848,107.10854615060985,36.585092635010284,
AF3,146.37847601104593,42.96146212349212,125.71453426675596,55.623791649413256,37.68747793320611,
T7,224.8525665453134,19.494631762321617,70.2276637997391,24.704689385656707,53.4220329835808,
Pz,14.162901222917409,5.181930778425868,23.311784021379452,2.973525156349677,10.719865666439123,
T8,58.21979063810626,33.59376112079891,336.442946829581,92.64857979866568,54.85996846566377,
AF4,66.70915072361935,35.54278633672667,178.73008328213848,107.10854615060985,36.585092635010284,
AF3,146.37847601104593,42.96146212349212,125.71453426675596,55.623791649413256,37.68747793320611,
T7,224.8525665453134,19.494631762321617,70.2276637997391,24.704689385656707,53.4220329835808,
Pz,14.162901222917409,5.181930778425868,23.311784021379452,2.973525156349677,10.719865666439123,
T8,58.21979063810626,33.59376112079891,336.442946829581,92.64857979866568,54.85996846566377,
AF4,66.70915072361935,35.54278633672667,178.73008328213848,107.10854615060985,36.585092635010284,
AF3,146.37847601104593,42.96146212349212,125.71453426675596,55.623791649413256,37.68747793320611,
T7,224.8525665453134,19.494631762321617,70.2276637997391,24.704689385656707,53.4220329835808,
Pz,14.162901222917409,5.181930778425868,23.311784021379452,2.973525156349677,10.719865666439123,
T8,58.21979063810626,33.59376112079891,336.442946829581,92.64857979866568,54.85996846566377,
AF4,66.70915072361935,35.54278633672667,178.73008328213848,107.10854615060985,36.585092635010284,
AF3,138.0793501550563,35.743496227753866,172.86901447321947,37.7076609909613,44.33120679941063,
T7,199.17416263055264,19.37065127723234,145.35039848135517,50.68559382148717,72.08935564595018,
Pz,9.845570486856658,2.2300997608284625,26.643326860726642,6.1567493949285215,15.02106637635462,
T8,92.35308977305479,14.133508891234316,373.1280138224378,89.15814012580923,51.49623198697054,
AF4,56.81426636619187,24.697098233434822,327.1657695416335,124.63569936238592,24.121529323098446,
AF3,138.0793501550563,35.743496227753866,172.86901447321947,37.7076609909613,44.33120679941063,
T7,199.17416263055264,19.37065127723234,145.35039848135517,50.68559382148717,72.08935564595018,
Pz,9.845570486856658,2.2300997608284625,26.643326860726642,6.1567493949285215,15.02106637635462,
T8,92.35308977305479,14.133508891234316,373.1280138224378,89.15814012580923,51.49623198697054,
AF4,56.81426636619187,24.697098233434822,327.1657695416335,124.63569936238592,24.121529323098446,
AF3,138.0793501550563,35.743496227753866,172.86901447321947,37.7076609909613,44.33120679941063,
T7,199.17416263055264,19.37065127723234,145.35039848135517,50.68559382148717,72.08935564595018,
Pz,9.845570486856658,2.2300997608284625,26.643326860726642,6.1567493949285215,15.02106637635462,
T8,92.35308977305479,14.133508891234316,373.1280138224378,89.15814012580923,51.49623198697054,
AF4,56.81426636619187,24.697098233434822,327.1657695416335,124.63569936238592,24.121529323098446,
AF3,138.0793501550563,35.743496227753866,172.86901447321947,37.7076609909613,44.33120679941063,
T7,199.17416263055264,19.37065127723234,145.35039848135517,50.68559382148717,72.08935564595018,
Pz,9.845570486856658,2.2300997608284625,26.643326860726642,6.1567493949285215,15.02106637635462,
T8,92.35308977305479,14.133508891234316,373.1280138224378,89.15814012580923,51.49623198697054,
AF4,56.81426636619187,24.697098233434822,327.1657695416335,124.63569936238592,24.121529323098446,
AF3,138.0793501550563,35.743496227753866,172.86901447321947,37.7076609909613,44.33120679941063,
T7,199.17416263055264,19.37065127723234,145.35039848135517,50.68559382148717,72.08935564595018,
Pz,9.845570486856658,2.2300997608284625,26.643326860726642,6.1567493949285215,15.02106637635462,
T8,92.35308977305479,14.133508891234316,373.1280138224378,89.15814012580923,51.49623198697054,
AF4,56.81426636619187,24.697098233434822,327.1657695416335,124.63569936238592,24.121529323098446,
AF3,138.0793501550563,35.743496227753866,172.86901447321947,37.7076609909613,44.33120679941063,
T7,199.17416263055264,19.37065127723234,145.35039848135517,50.68559382148717,72.08935564595018,
Pz,9.845570486856658,2.2300997608284625,26.643326860726642,6.1567493949285215,15.02106637635462,
T8,92.35308977305479,14.133508891234316,373.1280138224378,89.15814012580923,51.49623198697054,
AF4,56.81426636619187,24.697098233434822,327.1657695416335,124.63569936238592,24.121529323098446,
AF3,138.0793501550563,35.743496227753866,172.86901447321947,37.7076609909613,44.33120679941063,
T7,199.17416263055264,19.37065127723234,145.35039848135517,50.68559382148717,72.08935564595018,
Pz,9.845570486856658,2.2300997608284625,26.643326860726642,6.1567493949285215,15.02106637635462,
T8,92.35308977305479,14.133508891234316,373.1280138224378,89.15814012580923,51.49623198697054,
AF4,56.81426636619187,24.697098233434822,327.1657695416335,124.63569936238592,24.121529323098446,
AF3,138.0793501550563,35.743496227753866,172.86901447321947,37.7076609909613,44.33120679941063,
T7,199.17416263055264,19.37065127723234,145.35039848135517,50.68559382148717,72.08935564595018,
Pz,9.845570486856658,2.2300997608284625,26.643326860726642,6.1567493949285215,15.02106637635462,
T8,92.35308977305479,14.133508891234316,373.1280138224378,89.15814012580923,51.49623198697054,
AF4,56.81426636619187,24.697098233434822,327.1657695416335,124.63569936238592,24.121529323098446,
AF3,138.0793501550563,35.743496227753866,172.86901447321947,37.7076609909613,44.33120679941063,
T7,199.17416263055264,19.37065127723234,145.35039848135517,50.68559382148717,72.08935564595018,
Pz,9.845570486856658,2.2300997608284625,26.643326860726642,6.1567493949285215,15.02106637635462,
T8,92.35308977305479,14.133508891234316,373.1280138224378,89.15814012580923,51.49623198697054,
AF4,56.81426636619187,24.697098233434822,327.1657695416335,124.63569936238592,24.121529323098446,
AF3,138.0793501550563,35.743496227753866,172.86901447321947,37.7076609909613,44.33120679941063,
T7,199.17416263055264,19.37065127723234,145.35039848135517,50.68559382148717,72.08935564595018,
Pz,9.845570486856658,2.2300997608284625,26.643326860726642,6.1567493949285215,15.02106637635462,
T8,92.35308977305479,14.133508891234316,373.1280138224378,89.15814012580923,51.49623198697054,
AF4,56.81426636619187,24.697098233434822,327.1657695416335,124.63569936238592,24.121529323098446,
AF3,138.0793501550563,35.743496227753866,172.86901447321947,37.7076609909613,44.33120679941063,
T7,199.17416263055264,19.37065127723234,145.35039848135517,50.68559382148717,72.08935564595018,
Pz,9.845570486856658,2.2300997608284625,26.643326860726642,6.1567493949285215,15.02106637635462,
T8,92.35308977305479,14.133508891234316,373.1280138224378,89.15814012580923,51.49623198697054,
AF4,56.81426636619187,24.697098233434822,327.1657695416335,124.63569936238592,24.121529323098446,
AF3,138.0793501550563,35.743496227753866,172.86901447321947,37.7076609909613,44.33120679941063,
T7,199.17416263055264,19.37065127723234,145.35039848135517,50.68559382148717,72.08935564595018,
Pz,9.845570486856658,2.2300997608284625,26.643326860726642,6.1567493949285215,15.02106637635462,
T8,92.35308977305479,14.133508891234316,373.1280138224378,89.15814012580923,51.49623198697054,
AF4,56.81426636619187,24.697098233434822,327.1657695416335,124.63569936238592,24.121529323098446,
AF3,138.0793501550563,35.743496227753866,172.86901447321947,37.7076609909613,44.33120679941063,
T7,199.17416263055264,19.37065127723234,145.35039848135517,50.68559382148717,72.08935564595018,
Pz,9.845570486856658,2.2300997608284625,26.643326860726642,6.1567493949285215,15.02106637635462,
T8,92.35308977305479,14.133508891234316,373.1280138224378,89.15814012580923,51.49623198697054,
AF4,56.81426636619187,24.697098233434822,327.1657695416335,124.63569936238592,24.121529323098446,
AF3,138.0793501550563,35.743496227753866,172.86901447321947,37.7076609909613,44.33120679941063,
T7,199.17416263055264,19.37065127723234,145.35039848135517,50.68559382148717,72.08935564595018,
Pz,9.845570486856658,2.2300997608284625,26.643326860726642,6.1567493949285215,15.02106637635462,
T8,92.35308977305479,14.133508891234316,373.1280138224378,89.15814012580923,51.49623198697054,
AF4,56.81426636619187,24.697098233434822,327.1657695416335,124.63569936238592,24.121529323098446,
AF3,138.0793501550563,35.743496227753866,172.86901447321947,37.7076609909613,44.33120679941063,
T7,199.17416263055264,19.37065127723234,145.35039848135517,50.68559382148717,72.08935564595018,
Pz,9.845570486856658,2.2300997608284625,26.643326860726642,6.1567493949285215,15.02106637635462,
T8,92.35308977305479,14.133508891234316,373.1280138224378,89.15814012580923,51.49623198697054,
AF4,56.81426636619187,24.697098233434822,327.1657695416335,124.63569936238592,24.121529323098446,
AF3,138.0793501550563,35.743496227753866,172.86901447321947,37.7076609909613,44.33120679941063,
T7,199.17416263055264,19.37065127723234,145.35039848135517,50.68559382148717,72.08935564595018,
Pz,9.845570486856658,2.2300997608284625,26.643326860726642,6.1567493949285215,15.02106637635462,
T8,92.35308977305479,14.133508891234316,373.1280138224378,89.15814012580923,51.49623198697054,
AF4,56.81426636619187,24.697098233434822,327.1657695416335,124.63569936238592,24.121529323098446,
AF3,138.0793501550563,35.743496227753866,172.86901447321947,37.7076609909613,44.33120679941063,
T7,199.17416263055264,19.37065127723234,145.35039848135517,50.68559382148717,72.08935564595018,
Pz,9.845570486856658,2.2300997608284625,26.643326860726642,6.1567493949285215,15.02106637635462,
T8,92.35308977305479,14.133508891234316,373.1280138224378,89.15814012580923,51.49623198697054,
AF4,56.81426636619187,24.697098233434822,327.1657695416335,124.63569936238592,24.121529323098446,
AF3,138.0793501550563,35.743496227753866,172.86901447321947,37.7076609909613,44.33120679941063,
T7,199.17416263055264,19.37065127723234,145.35039848135517,50.68559382148717,72.08935564595018,
Pz,9.845570486856658,2.2300997608284625,26.643326860726642,6.1567493949285215,15.02106637635462,
T8,92.35308977305479,14.133508891234316,373.1280138224378,89.15814012580923,51.49623198697054,
AF4,56.81426636619187,24.697098233434822,327.1657695416335,124.63569936238592,24.121529323098446,
AF3,138.0793501550563,35.743496227753866,172.86901447321947,37.7076609909613,44.33120679941063,
T7,199.17416263055264,19.37065127723234,145.35039848135517,50.68559382148717,72.08935564595018,
Pz,9.845570486856658,2.2300997608284625,26.643326860726642,6.1567493949285215,15.02106637635462,
T8,92.35308977305479,14.133508891234316,373.1280138224378,89.15814012580923,51.49623198697054,
AF4,56.81426636619187,24.697098233434822,327.1657695416335,124.63569936238592,24.121529323098446,
AF3,138.0793501550563,35.743496227753866,172.86901447321947,37.7076609909613,44.33120679941063,
T7,199.17416263055264,19.37065127723234,145.35039848135517,50.68559382148717,72.08935564595018,
Pz,9.845570486856658,2.2300997608284625,26.643326860726642,6.1567493949285215,15.02106637635462,
T8,92.35308977305479,14.133508891234316,373.1280138224378,89.15814012580923,51.49623198697054,
AF4,56.81426636619187,24.697098233434822,327.1657695416335,124.63569936238592,24.121529323098446,
